,TP9,AF7,AF8,TP10,Right AUX,timestamps
0,-0.488,-0.488,0.000,-0.488,0.000,1713320975.698
1,-0.488,-0.488,0.000,5.371,0.000,1713320975.702
2,30.762,30.762,-32.227,5.371,0.000,1713320975.706
3,-68.359,-68.359,70.312,-87.891,0.000,1713320975.710
4,384.277,384.277,-396.484,454.102,0.000,1713320975.714
5,939.941,940.918,-1000.000,-85.449,0.000,1713320975.718
6,999.512,999.512,-992.188,-1000.000,0.000,1713320975.721
7,237.305,174.805,-986.328,-165.039,0.000,1713320975.725
8,-1000.000,-1000.000,-1000.000,999.512,0.000,1713320975.729
9,-268.555,-984.375,-1000.000,-315.430,0.000,1713320975.733
10,999.512,-971.680,-1000.000,-1000.000,0.000,1713320975.737
11,209.961,-946.777,-1000.000,-831.055,0.000,1713320975.741
12,-1000.000,-1000.000,-1000.000,689.941,0.000,1713320975.743
13,-8.789,-187.500,-1000.000,517.090,0.000,1713320975.747
14,999.512,999.512,-1000.000,-1000.000,0.000,1713320975.751
15,919.922,947.266,-1000.000,-842.285,0.000,1713320975.755
16,955.566,943.359,-1000.000,758.789,0.000,1713320975.759
17,967.773,974.121,-1000.000,840.820,0.000,1713320975.762
18,972.656,968.750,-1000.000,-694.336,0.000,1713320975.766
19,961.426,968.262,-1000.000,-1000.000,0.000,1713320975.770
20,927.246,965.820,-1000.000,7.812,0.000,1713320975.774
21,961.914,968.262,-1000.000,999.512,0.000,1713320975.777
22,909.668,906.250,-1000.000,-59.570,0.000,1713320975.781
23,999.512,999.512,-1000.000,-1000.000,0.000,1713320975.785
24,251.465,183.594,-1000.000,-719.238,0.000,1713320975.786
25,-1000.000,-1000.000,-1000.000,723.633,0.000,1713320975.790
26,-270.508,-983.398,-1000.000,-77.637,0.000,1713320975.793
27,999.512,-974.121,-1000.000,-1000.000,0.000,1713320975.797
28,275.879,-944.336,-1000.000,-955.566,0.000,1713320975.801
29,-1000.000,-1000.000,-1000.000,508.301,0.000,1713320975.804
30,-155.762,-219.727,-1000.000,627.930,0.000,1713320975.808
31,999.512,999.512,-1000.000,-1000.000,0.000,1713320975.812
32,936.523,952.148,-1000.000,-986.816,0.000,1713320975.815
33,946.289,942.383,-1000.000,549.805,0.000,1713320975.819
34,963.867,966.797,-1000.000,978.027,0.000,1713320975.823
35,919.922,918.457,-1000.000,-494.629,0.000,1713320975.826
36,999.512,999.512,-1000.000,-1000.000,0.000,1713320975.828
37,87.891,41.992,-1000.000,-48.828,0.000,1713320975.831
38,-1000.000,-1000.000,-1000.000,796.875,0.000,1713320975.835
39,-250.488,-966.309,-1000.000,-626.953,0.000,1713320975.838
40,999.512,-971.680,-1000.000,-1000.000,0.000,1713320975.842
41,187.012,-960.938,-1000.000,-552.246,0.000,1713320975.846
42,-1000.000,-1000.000,-1000.000,982.910,0.000,1713320975.849
43,188.477,-12.695,-1000.000,317.871,0.000,1713320975.853
44,999.512,999.512,-1000.000,-1000.000,0.000,1713320975.856
45,901.855,924.805,-1000.000,-584.473,0.000,1713320975.860
46,976.074,964.844,-1000.000,999.512,0.000,1713320975.864
47,932.129,937.988,-1000.000,561.523,0.000,1713320975.867
48,971.680,965.820,-1000.000,-937.988,0.000,1713320975.867
49,989.258,999.512,-1000.000,-1000.000,0.000,1713320975.870
50,-300.293,-291.016,-1000.000,253.418,0.000,1713320975.874
51,-1000.000,-1000.000,-1000.000,504.395,0.000,1713320975.877
52,36.621,-947.754,-1000.000,-964.355,0.000,1713320975.881
53,999.512,-958.008,-1000.000,-1000.000,0.000,1713320975.884
54,-135.742,-1000.000,-1000.000,-294.922,0.000,1713320975.888
55,-872.070,-937.500,-1000.000,999.512,0.000,1713320975.891
56,729.492,427.246,-1000.000,240.723,0.000,1713320975.895
57,999.512,999.512,-1000.000,-1000.000,0.000,1713320975.898
58,901.855,901.367,-1000.000,-293.945,0.000,1713320975.902
59,998.047,992.676,-1000.000,999.512,0.000,1713320975.905
60,896.973,899.902,-1000.000,276.367,0.000,1713320975.906
61,999.512,999.512,-1000.000,-1000.000,0.000,1713320975.909
62,666.504,655.762,-1000.000,-854.492,0.000,1713320975.913
63,-885.254,-790.039,-1000.000,766.602,0.000,1713320975.916
64,-949.219,-1000.000,-1000.000,276.367,0.000,1713320975.919
65,634.766,-953.613,-1000.000,-1000.000,0.000,1713320975.923
66,999.512,-940.918,-1000.000,-1000.000,0.000,1713320975.926
67,-596.191,-1000.000,-1000.000,-219.727,0.000,1713320975.930
68,-529.785,-562.500,-1000.000,999.512,0.000,1713320975.933
69,999.512,881.348,-1000.000,-21.484,0.000,1713320975.937
70,979.004,999.512,-1000.000,-1000.000,0.000,1713320975.940
71,924.805,913.574,-1000.000,-227.539,0.000,1713320975.944
72,987.305,993.164,-1000.000,999.512,0.000,1713320975.947
73,898.438,896.484,-1000.000,242.188,0.000,1713320975.950
74,999.512,999.512,-1000.000,-1000.000,0.000,1713320975.954
75,386.230,372.559,-1000.000,-447.266,0.000,1713320975.957
76,-1000.000,-998.047,-1000.000,999.512,0.000,1713320975.961
77,-606.934,-1000.000,-1000.000,180.176,0.000,1713320975.964
78,999.512,-962.402,-1000.000,-1000.000,0.000,1713320975.968
79,634.766,-945.312,-1000.000,-1000.000,0.000,1713320975.971
80,-1000.000,-1000.000,-1000.000,50.293,0.000,1713320975.975
81,-254.395,-284.180,-1000.000,995.117,0.000,1713320975.978
82,999.512,999.512,-1000.000,-508.789,0.000,1713320975.981
83,936.035,962.402,-1000.000,-1000.000,0.000,1713320975.985
84,940.918,936.523,-1000.000,37.598,0.000,1713320975.989
85,975.586,977.539,-1000.000,999.512,0.000,1713320975.992
86,905.273,905.762,-1000.000,12.695,0.000,1713320975.995
87,999.512,999.512,-1000.000,-1000.000,0.000,1713320975.999
88,250.977,188.477,-1000.000,-227.051,0.000,1713320976.002
89,-1000.000,-1000.000,-1000.000,999.512,0.000,1713320976.006
90,-277.344,-984.375,-1000.000,-92.773,0.000,1713320976.009
91,999.512,-973.633,-1000.000,-1000.000,0.000,1713320976.013
92,291.504,-944.336,-1000.000,-959.961,0.000,1713320976.016
93,-1000.000,-1000.000,-1000.000,522.461,0.000,1713320976.020
94,-182.129,-220.215,-1000.000,666.016,0.000,1713320976.023
95,999.512,999.512,-1000.000,-1000.000,0.000,1713320976.027
96,939.453,952.148,-1000.000,-993.164,0.000,1713320976.033
97,943.848,942.383,-1000.000,524.414,0.000,1713320976.036
98,966.309,970.703,-1000.000,999.512,0.000,1713320976.040
99,917.480,912.598,-1000.000,-399.902,0.000,1713320976.043
100,999.512,999.512,-1000.000,-1000.000,0.000,1713320976.047
101,112.305,104.492,-1000.000,-55.176,0.000,1713320976.050
102,-1000.000,-1000.000,-1000.000,884.766,0.000,1713320976.054
103,-252.441,-974.121,-1000.000,-520.508,0.000,1713320976.057
104,999.512,-970.215,-1000.000,-1000.000,0.000,1713320976.061
105,194.336,-957.031,-1000.000,-529.297,0.000,1713320976.064
106,-1000.000,-1000.000,-1000.000,999.512,0.000,1713320976.067
107,140.625,-60.547,-1000.000,339.355,0.000,1713320976.071
108,999.512,999.512,-1000.000,-1000.000,0.000,1713320976.075
109,905.273,930.664,-1000.000,-591.309,0.000,1713320976.079
110,972.656,959.473,-1000.000,999.512,0.000,1713320976.082
111,935.547,945.801,-1000.000,612.793,0.000,1713320976.086
112,964.355,950.684,-1000.000,-909.180,0.000,1713320976.089
113,999.512,999.512,-1000.000,-1000.000,0.000,1713320976.093
114,-257.324,-202.148,-1000.000,335.449,0.000,1713320976.096
115,-1000.000,-1000.000,-1000.000,579.102,0.000,1713320976.100
116,14.160,-951.172,-1000.000,-938.965,0.000,1713320976.103
117,999.512,-958.008,-1000.000,-1000.000,0.000,1713320976.107
118,-109.375,-1000.000,-1000.000,-277.832,0.000,1713320976.110
119,-907.715,-969.238,-1000.000,999.512,0.000,1713320976.114
120,682.617,373.047,-1000.000,244.141,0.000,1713320976.120
121,999.512,999.512,-1000.000,-1000.000,0.000,1713320976.123
122,900.391,902.344,-1000.000,-299.805,0.000,1713320976.127
123,997.070,990.234,-994.629,999.512,0.000,1713320976.130
124,898.438,905.762,-997.559,303.711,0.000,1713320976.134
125,999.512,999.512,-1000.000,-1000.000,0.000,1713320976.137
126,678.223,727.051,-1000.000,-811.035,0.000,1713320976.141
127,-834.473,-702.148,-986.816,838.867,0.000,1713320976.144
128,-1000.000,-1000.000,-992.188,299.316,0.000,1713320976.148
129,491.699,-951.660,-1000.000,-1000.000,0.000,1713320976.151
130,999.512,-941.895,-999.512,-1000.000,0.000,1713320976.155
131,-567.871,-1000.000,-1000.000,-220.215,0.000,1713320976.158
132,-577.637,-616.699,-1000.000,999.512,0.000,1713320976.163
133,999.512,831.543,-999.512,26.855,0.000,1713320976.166
134,987.793,999.512,-1000.000,-1000.000,0.000,1713320976.170
135,921.387,910.156,-998.047,-233.398,0.000,1713320976.174
136,987.793,992.188,-984.863,999.512,0.000,1713320976.177
137,898.926,897.461,-997.070,242.188,0.000,1713320976.181
138,999.512,999.512,-1000.000,-1000.000,0.000,1713320976.184
139,372.559,339.355,-999.023,-502.441,0.000,1713320976.188
140,-1000.000,-1000.000,-990.234,999.512,0.000,1713320976.191
141,-640.625,-1000.000,-996.582,210.449,0.000,1713320976.195
142,999.512,-967.773,-1000.000,-1000.000,0.000,1713320976.198
143,642.090,-941.406,-999.512,-1000.000,0.000,1713320976.202
144,-1000.000,-1000.000,-1000.000,55.176,0.000,1713320976.206
145,-253.906,-340.820,-1000.000,999.512,0.000,1713320976.210
146,999.512,995.605,-995.117,-452.637,0.000,1713320976.213
147,936.035,972.168,-1000.000,-1000.000,0.000,1713320976.217
148,940.918,931.641,-969.727,22.949,0.000,1713320976.220
149,975.586,979.004,-926.270,999.512,0.000,1713320976.224
150,904.785,905.762,-996.094,46.875,0.000,1713320976.227
151,999.512,999.512,-1000.000,-1000.000,0.000,1713320976.231
152,253.418,187.988,-991.699,-230.957,0.000,1713320976.234
153,-1000.000,-1000.000,-967.285,999.512,0.000,1713320976.238
154,-315.918,-984.375,-993.652,-18.555,0.000,1713320976.241
155,999.512,-973.633,-1000.000,-1000.000,0.000,1713320976.245
156,304.199,-944.336,-998.047,-947.266,0.000,1713320976.250
157,-1000.000,-1000.000,-1000.000,556.641,0.000,1713320976.253
158,-194.336,-220.215,-1000.000,687.500,0.000,1713320976.257
159,999.512,999.512,-993.652,-1000.000,0.000,1713320976.260
160,941.406,952.148,-1000.000,-1000.000,0.000,1713320976.264
161,942.871,942.383,-922.363,493.652,0.000,1713320976.268
162,966.797,970.215,-890.625,999.512,0.000,1713320976.271
163,917.480,913.574,-1000.000,-348.633,0.000,1713320976.275
164,999.512,999.512,-1000.000,-1000.000,0.000,1713320976.278
165,111.816,98.145,-951.660,-83.496,0.000,1713320976.282
166,-1000.000,-1000.000,-905.273,955.566,0.000,1713320976.285
167,-251.465,-972.656,-1000.000,-413.086,0.000,1713320976.289
168,999.512,-972.656,-1000.000,-1000.000,0.000,1713320976.295
169,201.172,-953.613,-996.094,-532.227,0.000,1713320976.299
170,-1000.000,-1000.000,-998.047,999.512,0.000,1713320976.302
171,90.820,-86.914,-998.535,361.328,0.000,1713320976.306
172,999.512,999.512,-996.094,-1000.000,0.000,1713320976.310
173,909.180,934.082,-1000.000,-585.938,0.000,1713320976.313
174,969.727,958.008,-887.695,988.281,0.000,1713320976.317
175,935.059,943.848,-883.301,583.496,0.000,1713320976.320
176,966.309,955.566,-1000.000,-862.305,0.000,1713320976.324
177,999.512,999.512,-1000.000,-1000.000,0.000,1713320976.327
178,-261.719,-231.445,-873.047,278.809,0.000,1713320976.331
179,-1000.000,-1000.000,-818.848,596.680,0.000,1713320976.334
180,-20.020,-945.801,-1000.000,-920.898,0.000,1713320976.341
181,999.512,-972.656,-1000.000,-1000.000,0.000,1713320976.345
182,-64.941,-986.816,-992.188,-270.508,0.000,1713320976.348
183,-1000.000,-1000.000,-985.352,999.512,0.000,1713320976.352
184,507.812,197.266,-993.164,243.652,0.000,1713320976.355
185,999.512,999.512,-1000.000,-1000.000,0.000,1713320976.359
186,898.438,906.738,-1000.000,-308.594,0.000,1713320976.362
187,993.164,984.375,-834.961,999.512,0.000,1713320976.366
188,897.461,902.832,-884.277,333.008,0.000,1713320976.370
189,999.512,999.512,-1000.000,-1000.000,0.000,1713320976.373
190,661.621,691.406,-1000.000,-877.930,0.000,1713320976.377
191,-831.055,-749.512,-828.125,758.789,0.000,1713320976.380
192,-1000.000,-1000.000,-811.035,316.895,0.000,1713320976.386
193,420.410,-952.637,-1000.000,-1000.000,0.000,1713320976.390
194,999.512,-950.195,-1000.000,-1000.000,0.000,1713320976.394
195,-595.215,-1000.000,-955.078,-227.539,0.000,1713320976.397
196,-665.039,-735.840,-914.551,999.512,0.000,1713320976.401
197,957.031,703.125,-991.211,57.129,0.000,1713320976.404
198,999.512,999.512,-1000.000,-1000.000,0.000,1713320976.408
199,914.551,904.785,-968.750,-236.328,0.000,1713320976.412
200,990.234,993.164,-834.961,999.512,0.000,1713320976.415
201,897.949,895.996,-948.730,241.699,0.000,1713320976.419
202,999.512,999.512,-1000.000,-1000.000,0.000,1713320976.422
203,391.602,387.207,-1000.000,-472.656,0.000,1713320976.426
204,-1000.000,-991.699,-778.320,999.512,0.000,1713320976.432
205,-667.480,-1000.000,-840.820,209.473,0.000,1713320976.436
206,999.512,-966.309,-1000.000,-1000.000,0.000,1713320976.439
207,650.879,-940.430,-1000.000,-1000.000,0.000,1713320976.443
208,-1000.000,-1000.000,-919.434,48.828,0.000,1713320976.446
209,-300.293,-398.438,-902.344,999.512,0.000,1713320976.450
210,999.512,971.191,-997.070,-381.348,0.000,1713320976.454
211,943.359,982.422,-1000.000,-1000.000,0.000,1713320976.457
212,937.012,926.758,-886.719,3.418,0.000,1713320976.461
213,976.562,980.957,-753.906,999.512,0.000,1713320976.464
214,905.273,905.762,-977.051,73.730,0.000,1713320976.468
215,999.512,999.512,-1000.000,-1000.000,0.000,1713320976.472
216,255.859,187.988,-936.523,-274.414,0.000,1713320976.477
217,-1000.000,-1000.000,-754.883,999.512,0.000,1713320976.481
218,-347.656,-984.375,-931.152,9.766,0.000,1713320976.485
219,999.512,-973.633,-1000.000,-1000.000,0.000,1713320976.488
220,295.898,-944.336,-1000.000,-973.633,0.000,1713320976.492
221,-1000.000,-1000.000,-925.781,507.324,0.000,1713320976.495
222,-204.102,-220.215,-925.781,735.840,0.000,1713320976.499
223,999.512,999.512,-995.605,-956.055,0.000,1713320976.503
224,943.359,952.148,-1000.000,-1000.000,0.000,1713320976.506
225,941.895,941.895,-780.762,466.309,0.000,1713320976.510
226,967.773,972.168,-671.387,999.512,0.000,1713320976.514
227,916.016,910.645,-998.047,-312.988,0.000,1713320976.517
228,999.512,999.512,-1000.000,-1000.000,0.000,1713320976.523
229,125.977,131.348,-824.219,-96.191,0.000,1713320976.526
230,-1000.000,-1000.000,-656.738,999.512,0.000,1713320976.530
231,-250.977,-976.562,-974.121,-333.984,0.000,1713320976.534
232,999.512,-976.562,-1000.000,-1000.000,0.000,1713320976.537
233,215.332,-944.824,-973.633,-551.758,0.000,1713320976.541
234,-1000.000,-1000.000,-848.633,995.117,0.000,1713320976.544
235,-31.738,-197.266,-929.688,377.441,0.000,1713320976.548
236,999.512,999.512,-1000.000,-1000.000,0.000,1713320976.552
237,922.852,948.730,-1000.000,-607.422,0.000,1713320976.555
238,961.426,949.219,-750.000,999.512,0.000,1713320976.559
239,937.988,948.242,-695.312,688.965,0.000,1713320976.563
240,963.867,951.660,-1000.000,-825.195,0.000,1713320976.568
241,999.512,999.512,-1000.000,-1000.000,0.000,1713320976.572
242,-239.746,-207.520,-748.535,257.324,0.000,1713320976.575
243,-1000.000,-1000.000,-627.930,706.543,0.000,1713320976.579
244,-67.383,-945.312,-1000.000,-826.660,0.000,1713320976.583
245,999.512,-977.539,-1000.000,-1000.000,0.000,1713320976.586
246,-54.688,-975.098,-911.621,-274.414,0.000,1713320976.590
247,-1000.000,-1000.000,-786.133,999.512,0.000,1713320976.594
248,396.484,123.047,-962.402,246.094,0.000,1713320976.597
249,999.512,999.512,-1000.000,-1000.000,0.000,1713320976.601
250,897.949,911.133,-1000.000,-320.312,0.000,1713320976.604
251,988.770,980.469,-621.582,999.512,0.000,1713320976.608
252,896.973,900.879,-683.105,334.961,0.000,1713320976.614
253,999.512,999.512,-1000.000,-1000.000,0.000,1713320976.617
254,645.508,666.504,-1000.000,-984.863,0.000,1713320976.621
255,-826.172,-781.250,-687.500,600.586,0.000,1713320976.624
256,-1000.000,-1000.000,-640.625,397.949,0.000,1713320976.628
257,340.332,-952.637,-1000.000,-1000.000,0.000,1713320976.632
258,999.512,-955.566,-1000.000,-1000.000,0.000,1713320976.635
259,-607.422,-1000.000,-856.934,-227.539,0.000,1713320976.639
260,-711.426,-793.945,-757.324,999.512,0.000,1713320976.643
261,915.527,631.836,-981.934,75.195,0.000,1713320976.646
262,999.512,999.512,-1000.000,-1000.000,0.000,1713320976.650
263,911.621,902.832,-923.828,-238.281,0.000,1713320976.654
264,989.258,990.234,-557.617,999.512,0.000,1713320976.660
265,899.414,897.461,-792.480,239.258,0.000,1713320976.664
266,999.512,999.512,-1000.000,-1000.000,0.000,1713320976.667
267,360.352,342.285,-984.375,-618.164,0.000,1713320976.671
268,-1000.000,-1000.000,-580.566,999.512,0.000,1713320976.675
269,-718.262,-1000.000,-678.223,245.117,0.000,1713320976.678
270,961.426,-969.238,-1000.000,-1000.000,0.000,1713320976.682
271,660.156,-939.941,-1000.000,-1000.000,0.000,1713320976.686
272,-1000.000,-1000.000,-754.883,27.832,0.000,1713320976.689
273,-283.203,-377.930,-676.270,999.512,0.000,1713320976.693
274,999.512,980.469,-999.512,-350.098,0.000,1713320976.696
275,940.430,978.516,-1000.000,-1000.000,0.000,1713320976.700
276,936.523,928.711,-812.012,-18.555,0.000,1713320976.706
277,976.074,979.980,-552.734,999.512,0.000,1713320976.710
278,904.785,905.762,-913.574,99.609,0.000,1713320976.714
279,999.512,999.512,-1000.000,-1000.000,0.000,1713320976.717
280,250.488,187.988,-875.000,-338.379,0.000,1713320976.721
281,-1000.000,-1000.000,-478.516,999.512,0.000,1713320976.725
282,-318.848,-984.375,-767.090,166.992,0.000,1713320976.728
283,999.512,-973.633,-1000.000,-1000.000,0.000,1713320976.732
284,292.969,-944.336,-1000.000,-993.164,0.000,1713320976.736
285,-1000.000,-1000.000,-674.316,512.695,0.000,1713320976.739
286,-200.684,-220.215,-685.059,745.605,0.000,1713320976.743
287,999.512,999.512,-1000.000,-933.105,0.000,1713320976.747
288,934.082,952.148,-1000.000,-1000.000,0.000,1713320976.753
289,929.199,941.895,-676.270,416.016,0.000,1713320976.756
290,968.262,970.215,-469.727,999.512,0.000,1713320976.760
291,917.480,913.574,-966.309,-272.461,0.000,1713320976.764
292,999.512,999.512,-1000.000,-1000.000,0.000,1713320976.767
293,110.352,96.680,-730.469,-146.484,0.000,1713320976.771
294,-1000.000,-1000.000,-433.105,999.512,0.000,1713320976.775
295,-249.512,-971.680,-908.203,-205.078,0.000,1713320976.778
296,999.512,-979.004,-1000.000,-1000.000,0.000,1713320976.782
297,211.914,-944.824,-943.359,-585.938,0.000,1713320976.786
298,-1000.000,-1000.000,-646.484,973.633,0.000,1713320976.789
299,1.465,-187.988,-799.316,408.691,0.000,1713320976.793
300,999.512,999.512,-1000.000,-1000.000,0.000,1713320976.799
301,916.016,947.754,-1000.000,-633.789,0.000,1713320976.803
302,961.426,950.195,-545.898,995.605,0.000,1713320976.806
303,937.500,946.289,-439.941,696.777,0.000,1713320976.810
304,953.125,941.895,-1000.000,-814.453,0.000,1713320976.814
305,999.512,999.512,-1000.000,-1000.000,0.000,1713320976.817
306,-427.734,-269.531,-625.000,76.172,0.000,1713320976.821
307,-661.621,-1000.000,-365.234,999.512,0.000,1713320976.825
308,895.020,486.816,-944.824,-288.086,0.000,1713320976.828
309,999.512,999.512,-1000.000,-1000.000,0.000,1713320976.832
310,102.539,165.039,-770.020,-210.938,0.000,1713320976.836
311,-1000.000,-1000.000,-339.844,999.512,0.000,1713320976.839
312,265.137,-74.219,-783.203,219.727,0.000,1713320976.845
313,999.512,999.512,-1000.000,-1000.000,0.000,1713320976.849
314,214.355,331.055,-945.312,-421.387,0.000,1713320976.853
315,-1000.000,-1000.000,-391.602,999.512,0.000,1713320976.856
316,-236.328,-279.297,-562.988,306.641,0.000,1713320976.860
317,999.512,999.512,-1000.000,-1000.000,0.000,1713320976.864
318,673.340,850.098,-1000.000,-867.676,0.000,1713320976.867
319,-966.309,-763.672,-531.738,685.059,0.000,1713320976.871
320,-329.590,-564.453,-437.500,842.285,0.000,1713320976.875
321,999.512,955.566,-1000.000,-700.684,0.000,1713320976.878
322,999.512,999.512,-1000.000,-1000.000,0.000,1713320976.882
323,-295.898,-121.582,-652.344,-23.926,0.000,1713320976.886
324,-722.656,-1000.000,-364.258,999.512,0.000,1713320976.892
325,829.102,452.148,-931.152,15.137,0.000,1713320976.895
326,999.512,999.512,-1000.000,-1000.000,0.000,1713320976.899
327,138.672,167.969,-806.641,-237.793,0.000,1713320976.903
328,-1000.000,-1000.000,-331.543,999.512,0.000,1713320976.906
329,171.387,-122.070,-722.656,242.676,0.000,1713320976.910
330,999.512,999.512,-1000.000,-1000.000,0.000,1713320976.914
331,310.059,431.152,-976.074,-548.828,0.000,1713320976.917
332,-1000.000,-1000.000,-409.180,999.512,0.000,1713320976.921
333,-268.066,-290.527,-515.137,485.352,0.000,1713320976.925
334,999.512,999.512,-1000.000,-1000.000,0.000,1713320976.928
335,798.340,901.367,-1000.000,-1000.000,0.000,1713320976.932
336,-828.125,-685.059,-557.129,309.570,0.000,1713320976.938
337,-400.391,-642.578,-411.621,999.512,0.000,1713320976.941
338,999.512,900.879,-994.629,-422.363,0.000,1713320976.945
339,999.512,999.512,-1000.000,-1000.000,0.000,1713320976.949
340,-166.016,29.785,-683.594,-122.070,0.000,1713320976.953
341,-764.160,-1000.000,-286.621,999.512,0.000,1713320976.956
342,765.625,315.918,-843.750,163.086,0.000,1713320976.960
343,999.512,999.512,-1000.000,-1000.000,0.000,1713320976.964
344,147.949,187.988,-842.285,-262.695,0.000,1713320976.967
345,-1000.000,-1000.000,-238.770,999.512,0.000,1713320976.971
346,83.496,-215.820,-578.125,234.375,0.000,1713320976.975
347,999.512,999.512,-1000.000,-1000.000,0.000,1713320976.978
348,408.691,521.973,-1000.000,-723.633,0.000,1713320976.984
349,-1000.000,-1000.000,-380.371,889.648,0.000,1713320976.988
350,-286.133,-303.711,-423.340,652.832,0.000,1713320976.991
351,999.512,999.512,-1000.000,-916.016,0.000,1713320976.995
352,937.500,999.512,-1000.000,-1000.000,0.000,1713320976.999
353,-636.230,-438.965,-546.875,208.496,0.000,1713320977.002
354,-479.492,-761.230,-313.477,999.512,0.000,1713320977.006
355,988.770,810.547,-966.797,-223.145,0.000,1713320977.010
356,999.512,999.512,-1000.000,-1000.000,0.000,1713320977.013
357,-27.344,122.559,-695.312,-197.266,0.000,1713320977.017
358,-951.172,-1000.000,-253.418,999.512,0.000,1713320977.021
359,503.418,95.215,-790.527,223.633,0.000,1713320977.024
360,999.512,999.512,-1000.000,-1000.000,0.000,1713320977.031
361,159.668,197.266,-881.836,-407.715,0.000,1713320977.035
362,-1000.000,-1000.000,-225.098,999.512,0.000,1713320977.038
363,-64.453,-269.531,-497.070,310.059,0.000,1713320977.042
364,999.512,999.512,-1000.000,-1000.000,0.000,1713320977.046
365,521.484,650.391,-1000.000,-858.887,0.000,1713320977.049
366,-1000.000,-1000.000,-382.812,708.984,0.000,1713320977.053
367,-292.480,-413.086,-365.723,791.016,0.000,1713320977.057
368,999.512,999.512,-1000.000,-779.785,0.000,1713320977.061
369,999.512,999.512,-1000.000,-1000.000,0.000,1713320977.064
370,-443.848,-272.461,-558.105,83.984,0.000,1713320977.068
371,-550.293,-815.430,-229.492,999.512,0.000,1713320977.072
372,949.707,740.723,-914.062,-85.938,0.000,1713320977.078
373,999.512,999.512,-1000.000,-1000.000,0.000,1713320977.082
374,88.867,160.156,-725.098,-229.004,0.000,1713320977.085
375,-987.305,-1000.000,-170.898,999.512,0.000,1713320977.089
376,394.043,0.488,-679.688,242.676,0.000,1713320977.093
377,999.512,999.512,-1000.000,-1000.000,0.000,1713320977.096
378,195.312,296.875,-921.875,-504.395,0.000,1713320977.100
379,-1000.000,-1000.000,-231.934,999.512,0.000,1713320977.104
380,-145.996,-282.227,-435.547,406.250,0.000,1713320977.108
381,999.512,999.512,-1000.000,-1000.000,0.000,1713320977.111
382,644.043,778.809,-1000.000,-1000.000,0.000,1713320977.115
383,-976.562,-861.328,-384.766,481.445,0.000,1713320977.119
384,-304.688,-492.676,-257.324,912.109,0.000,1713320977.125
385,999.512,982.422,-1000.000,-629.395,0.000,1713320977.128
386,999.512,999.512,-1000.000,-1000.000,0.000,1713320977.132
387,-304.688,-145.996,-576.172,-64.453,0.000,1713320977.136
388,-653.809,-955.078,-154.785,999.512,0.000,1713320977.139
389,886.719,543.457,-851.562,40.039,0.000,1713320977.143
390,999.512,999.512,-1000.000,-1000.000,0.000,1713320977.147
391,135.742,166.504,-753.906,-270.020,0.000,1713320977.151
392,-1000.000,-1000.000,-96.680,999.512,0.000,1713320977.154
393,214.844,-104.004,-560.059,245.117,0.000,1713320977.158
394,999.512,999.512,-1000.000,-1000.000,0.000,1713320977.162
395,301.758,414.062,-964.355,-618.652,0.000,1713320977.165
396,-1000.000,-1000.000,-236.816,999.512,0.000,1713320977.172
397,-254.883,-285.645,-365.723,539.062,0.000,1713320977.176
398,999.512,999.512,-1000.000,-996.094,0.000,1713320977.180
399,806.152,923.828,-1000.000,-1000.000,0.000,1713320977.183
400,-811.035,-657.715,-426.758,317.871,0.000,1713320977.187
401,-341.797,-576.172,-190.918,999.512,0.000,1713320977.191
402,999.512,948.242,-962.402,-352.051,0.000,1713320977.195
403,999.512,999.512,-1000.000,-1000.000,0.000,1713320977.198
404,-174.316,-7.812,-631.348,-175.293,0.000,1713320977.202
405,-799.316,-1000.000,-137.695,999.512,0.000,1713320977.206
406,733.887,285.156,-768.066,180.176,0.000,1713320977.210
407,999.512,999.512,-1000.000,-1000.000,0.000,1713320977.213
408,143.066,174.805,-816.406,-348.633,0.000,1713320977.219
409,-1000.000,-1000.000,-85.449,999.512,0.000,1713320977.223
410,110.352,-194.824,-446.777,254.395,0.000,1713320977.226
411,999.512,999.512,-1000.000,-1000.000,0.000,1713320977.230
412,404.297,508.789,-1000.000,-818.359,0.000,1713320977.234
413,-1000.000,-1000.000,-257.812,773.926,0.000,1713320977.238
414,-285.645,-300.293,-294.434,692.871,0.000,1713320977.241
415,999.512,999.512,-1000.000,-896.484,0.000,1713320977.245
416,937.012,999.512,-1000.000,-1000.000,0.000,1713320977.249
417,-633.789,-444.336,-458.008,183.594,0.000,1713320977.253
418,-414.551,-672.852,-107.422,999.512,0.000,1713320977.256
419,999.512,888.672,-906.738,-175.293,0.000,1713320977.260
420,999.512,999.512,-1000.000,-1000.000,0.000,1713320977.265
421,-61.035,101.562,-635.742,-210.449,0.000,1713320977.269
422,-832.031,-1000.000,2.441,999.512,0.000,1713320977.273
423,665.039,200.684,-632.812,234.375,0.000,1713320977.277
424,999.512,999.512,-1000.000,-1000.000,0.000,1713320977.280
425,156.250,180.664,-846.680,-456.543,0.000,1713320977.284
426,-1000.000,-1000.000,-44.434,999.512,0.000,1713320977.288
427,-9.277,-257.812,-355.957,345.215,0.000,1713320977.292
428,999.512,999.512,-1000.000,-1000.000,0.000,1713320977.295
429,509.766,625.488,-1000.000,-927.734,0.000,1713320977.299
430,-1000.000,-1000.000,-200.195,611.328,0.000,1713320977.303
431,-293.457,-356.934,-146.973,830.078,0.000,1713320977.307
432,999.512,999.512,-1000.000,-713.379,0.000,1713320977.312
433,999.512,999.512,-1000.000,-1000.000,0.000,1713320977.316
434,-465.332,-314.453,-507.324,-100.586,0.000,1713320977.319
435,-567.871,-860.840,-90.820,999.512,0.000,1713320977.323
436,939.941,694.824,-849.121,-35.645,0.000,1713320977.327
437,999.512,999.512,-1000.000,-1000.000,0.000,1713320977.331
438,66.406,149.414,-678.223,-229.004,0.000,1713320977.334
439,-916.992,-1000.000,53.223,999.512,0.000,1713320977.338
440,499.512,72.266,-512.695,242.188,0.000,1713320977.342
441,999.512,999.512,-1000.000,-1000.000,0.000,1713320977.346
442,188.477,267.578,-908.203,-587.402,0.000,1713320977.349
443,-1000.000,-1000.000,-97.168,999.512,0.000,1713320977.353
444,-156.250,-279.297,-319.336,458.496,0.000,1713320977.361
445,999.512,999.512,-1000.000,-1000.000,0.000,1713320977.365
446,644.531,771.484,-1000.000,-1000.000,0.000,1713320977.369
447,-978.027,-869.629,-265.625,381.348,0.000,1713320977.372
448,-304.688,-442.871,-84.473,988.281,0.000,1713320977.376
449,999.512,999.512,-979.004,-503.418,0.000,1713320977.380
450,999.512,999.512,-1000.000,-1000.000,0.000,1713320977.383
451,-314.453,-173.340,-534.180,-177.734,0.000,1713320977.387
452,-657.715,-976.562,-19.531,999.512,0.000,1713320977.391
453,884.766,523.438,-765.625,90.820,0.000,1713320977.395
454,999.512,999.512,-1000.000,-1000.000,0.000,1713320977.398
455,124.023,161.621,-735.352,-280.273,0.000,1713320977.402
456,-1000.000,-1000.000,36.621,999.512,0.000,1713320977.407
457,276.855,-58.105,-436.523,242.676,0.000,1713320977.411
458,999.512,999.512,-1000.000,-1000.000,0.000,1713320977.415
459,291.016,388.184,-944.336,-707.031,0.000,1713320977.419
460,-1000.000,-1000.000,-82.520,921.875,0.000,1713320977.422
461,-241.211,-285.156,-243.652,580.566,0.000,1713320977.426
462,999.512,999.512,-1000.000,-959.473,0.000,1713320977.430
463,796.387,899.414,-1000.000,-1000.000,0.000,1713320977.434
464,-820.801,-695.312,-348.145,173.340,0.000,1713320977.437
465,-339.844,-570.312,-43.457,999.512,0.000,1713320977.441
466,999.512,950.195,-923.340,-294.434,0.000,1713320977.445
467,999.512,999.512,-1000.000,-1000.000,0.000,1713320977.449
468,-196.777,-56.641,-556.641,-212.402,0.000,1713320977.454
469,-725.586,-1000.000,117.188,999.512,0.000,1713320977.458
470,811.523,405.273,-623.047,216.309,0.000,1713320977.462
471,999.512,999.512,-1000.000,-1000.000,0.000,1713320977.465
472,149.414,173.340,-781.250,-458.008,0.000,1713320977.469
473,-1000.000,-1000.000,-11.230,999.512,0.000,1713320977.473
474,94.238,-188.965,-402.344,293.457,0.000,1713320977.477
475,999.512,999.512,-1000.000,-1000.000,0.000,1713320977.480
476,403.809,510.254,-1000.000,-815.430,0.000,1713320977.484
477,-1000.000,-1000.000,-63.477,776.855,0.000,1713320977.488
478,-269.531,-291.992,-78.613,720.215,0.000,1713320977.492
479,999.512,999.512,-1000.000,-816.406,0.000,1713320977.495
480,920.898,990.723,-1000.000,-1000.000,0.000,1713320977.501
481,-657.227,-521.973,-390.625,-90.820,0.000,1713320977.505
482,-476.562,-748.535,-23.926,999.512,0.000,1713320977.509
483,987.793,817.871,-879.883,-133.789,0.000,1713320977.512
484,999.512,999.512,-1000.000,-1000.000,0.000,1713320977.516
485,-72.754,85.938,-590.332,-214.355,0.000,1713320977.520
486,-805.176,-1000.000,188.965,999.512,0.000,1713320977.524
487,695.312,243.164,-501.953,244.141,0.000,1713320977.527
488,999.512,999.512,-1000.000,-1000.000,0.000,1713320977.531
489,161.621,179.688,-820.312,-563.477,0.000,1713320977.535
490,-1000.000,-1000.000,50.781,999.512,0.000,1713320977.539
491,-45.898,-265.625,-305.664,385.742,0.000,1713320977.542
492,999.512,999.512,-1000.000,-1000.000,0.000,1713320977.548
493,512.695,618.652,-1000.000,-1000.000,0.000,1713320977.551
494,-1000.000,-1000.000,-160.645,483.398,0.000,1713320977.555
495,-292.480,-333.496,-42.480,891.602,0.000,1713320977.559
496,999.512,999.512,-988.281,-655.273,0.000,1713320977.563
497,999.512,999.512,-1000.000,-1000.000,0.000,1713320977.566
498,-460.449,-323.242,-406.738,-91.797,0.000,1713320977.570
499,-502.441,-771.484,132.812,999.512,0.000,1713320977.574
500,971.680,793.457,-767.578,2.441,0.000,1713320977.578
501,999.512,999.512,-1000.000,-1000.000,0.000,1713320977.582
502,75.684,158.203,-662.109,-262.695,0.000,1713320977.585
503,-950.195,-1000.000,131.836,999.512,0.000,1713320977.589
504,458.496,40.527,-434.082,245.605,0.000,1713320977.594
505,999.512,999.512,-1000.000,-1000.000,0.000,1713320977.598
506,173.340,264.160,-871.094,-660.645,0.000,1713320977.602
507,-1000.000,-1000.000,103.027,980.469,0.000,1713320977.606
508,-101.562,-279.785,-172.852,497.559,0.000,1713320977.609
509,999.512,999.512,-1000.000,-1000.000,0.000,1713320977.613
510,630.371,754.395,-1000.000,-1000.000,0.000,1713320977.617
511,-982.910,-893.555,-208.496,228.027,0.000,1713320977.621
512,-303.711,-466.797,13.672,999.512,0.000,1713320977.624
513,999.512,993.164,-953.125,-477.051,0.000,1713320977.628
514,999.512,999.512,-1000.000,-1000.000,0.000,1713320977.632
515,-315.430,-182.129,-467.285,-165.039,0.000,1713320977.636
516,-584.961,-882.324,232.422,999.512,0.000,1713320977.641
517,927.246,644.043,-623.047,141.602,0.000,1713320977.645
518,999.512,999.512,-1000.000,-1000.000,0.000,1713320977.648
519,144.531,170.410,-704.590,-419.434,0.000,1713320977.652
520,-1000.000,-1000.000,131.836,999.512,0.000,1713320977.656
521,195.801,-117.676,-365.234,261.719,0.000,1713320977.660
522,999.512,999.512,-1000.000,-1000.000,0.000,1713320977.663
523,289.062,395.996,-950.684,-755.371,0.000,1713320977.667
524,-1000.000,-1000.000,56.641,866.211,0.000,1713320977.671
525,-187.012,-284.668,-60.059,623.047,0.000,1713320977.675
526,999.512,999.512,-1000.000,-933.594,0.000,1713320977.678
527,790.039,898.438,-1000.000,-1000.000,0.000,1713320977.682
528,-813.477,-697.266,-226.562,116.211,0.000,1713320977.687
529,-325.684,-557.617,150.391,999.512,0.000,1713320977.691
530,999.512,954.590,-866.211,-240.234,0.000,1713320977.695
531,999.512,999.512,-1000.000,-1000.000,0.000,1713320977.699
532,-193.359,-47.363,-528.320,-217.285,0.000,1713320977.702
533,-717.773,-1000.000,251.465,999.512,0.000,1713320977.706
534,817.871,424.805,-519.043,230.469,0.000,1713320977.710
535,999.512,999.512,-1000.000,-1000.000,0.000,1713320977.714
536,144.531,170.410,-752.930,-469.727,0.000,1713320977.717
537,-1000.000,-1000.000,185.059,999.512,0.000,1713320977.721
538,127.441,-157.715,-257.324,293.457,0.000,1713320977.725
539,999.512,999.512,-1000.000,-1000.000,0.000,1713320977.729
540,389.160,480.957,-993.164,-1000.000,0.000,1713320977.734
541,-1000.000,-1000.000,-9.277,466.797,0.000,1713320977.737
542,-274.414,-286.133,-16.602,791.504,0.000,1713320977.741
543,999.512,999.512,-1000.000,-789.551,0.000,1713320977.745
544,924.316,999.512,-1000.000,-1000.000,0.000,1713320977.749
545,-650.879,-513.672,-303.711,-71.777,0.000,1713320977.753
546,-417.969,-668.945,211.426,999.512,0.000,1713320977.756
547,999.512,889.160,-771.484,-77.637,0.000,1713320977.760
548,999.512,999.512,-1000.000,-1000.000,0.000,1713320977.764
549,-75.684,82.031,-568.848,-225.098,0.000,1713320977.768
550,-774.902,-1000.000,315.430,999.512,0.000,1713320977.771
551,732.422,269.531,-394.531,243.652,0.000,1713320977.775
552,999.512,999.512,-1000.000,-1000.000,0.000,1713320977.781
553,159.180,178.711,-800.781,-626.465,0.000,1713320977.785
554,-1000.000,-1000.000,195.801,999.512,0.000,1713320977.788
555,-16.113,-259.766,-177.246,414.551,0.000,1713320977.792
556,999.512,999.512,-1000.000,-1000.000,0.000,1713320977.796
557,506.836,603.516,-1000.000,-1000.000,0.000,1713320977.800
558,-1000.000,-1000.000,-83.008,321.777,0.000,1713320977.803
559,-292.480,-345.215,44.434,935.059,0.000,1713320977.807
560,999.512,999.512,-965.820,-597.656,0.000,1713320977.811
561,999.512,999.512,-1000.000,-1000.000,0.000,1713320977.815
562,-459.961,-321.777,-377.930,-145.020,0.000,1713320977.818
563,-520.996,-791.016,275.391,999.512,0.000,1713320977.822
564,962.402,772.949,-669.434,40.527,0.000,1713320977.828
565,999.512,999.512,-1000.000,-1000.000,0.000,1713320977.832
566,67.871,149.414,-611.816,-270.020,0.000,1713320977.835
567,-920.898,-1000.000,320.312,999.512,0.000,1713320977.839
568,498.047,90.332,-316.895,245.605,0.000,1713320977.843
569,999.512,999.512,-1000.000,-1000.000,0.000,1713320977.847
570,174.316,263.184,-865.723,-668.457,0.000,1713320977.850
571,-1000.000,-1000.000,242.676,975.586,0.000,1713320977.854
572,-76.172,-275.391,-21.484,513.672,0.000,1713320977.858
573,999.512,999.512,-1000.000,-985.352,0.000,1713320977.862
574,629.395,755.371,-1000.000,-1000.000,0.000,1713320977.865
575,-979.004,-890.137,-119.141,185.547,0.000,1713320977.869
576,-304.688,-451.172,157.227,999.512,0.000,1713320977.875
577,999.512,999.512,-909.668,-456.055,0.000,1713320977.878
578,999.512,999.512,-1000.000,-1000.000,0.000,1713320977.882
579,-313.477,-178.223,-413.086,-190.430,0.000,1713320977.886
580,-623.047,-912.109,340.332,999.512,0.000,1713320977.890
581,904.297,608.398,-583.496,124.512,0.000,1713320977.893
582,999.512,999.512,-1000.000,-1000.000,0.000,1713320977.897
583,130.371,165.039,-666.992,-394.043,0.000,1713320977.901
584,-1000.000,-1000.000,321.777,999.512,0.000,1713320977.905
585,257.812,-75.684,-230.469,256.348,0.000,1713320977.909
586,999.512,999.512,-1000.000,-1000.000,0.000,1713320977.912
587,281.738,385.254,-928.711,-792.969,0.000,1713320977.916
588,-1000.000,-1000.000,194.824,819.824,0.000,1713320977.921
589,-175.781,-286.621,73.242,669.434,0.000,1713320977.925
590,999.512,999.512,-1000.000,-879.883,0.000,1713320977.929
591,773.438,877.930,-1000.000,-1000.000,0.000,1713320977.933
592,-835.938,-724.609,-172.363,14.160,0.000,1713320977.936
593,-370.605,-621.582,278.809,999.512,0.000,1713320977.940
594,999.512,923.828,-794.922,-191.406,0.000,1713320977.944
595,999.512,999.512,-1000.000,-1000.000,0.000,1713320977.948
596,-186.035,-42.480,-501.953,-219.238,0.000,1713320977.952
597,-824.219,-1000.000,330.566,999.512,0.000,1713320977.955
598,708.984,264.648,-464.844,237.305,0.000,1713320977.959
599,999.512,999.512,-1000.000,-1000.000,0.000,1713320977.963
600,141.602,173.828,-740.723,-516.113,0.000,1713320977.968
601,-1000.000,-1000.000,292.480,999.512,0.000,1713320977.972
602,113.770,-168.457,-155.762,327.148,0.000,1713320977.976
603,999.512,999.512,-1000.000,-1000.000,0.000,1713320977.980
604,393.555,485.840,-1000.000,-1000.000,0.000,1713320977.983
605,-1000.000,-1000.000,54.688,473.633,0.000,1713320977.987
606,-279.785,-286.133,93.750,836.914,0.000,1713320977.991
607,999.512,999.512,-989.746,-730.469,0.000,1713320977.995
608,923.340,999.512,-1000.000,-1000.000,0.000,1713320977.998
609,-652.832,-510.254,-243.652,-86.914,0.000,1713320978.002
610,-398.926,-653.809,372.559,999.512,0.000,1713320978.006
611,999.512,902.344,-691.895,-37.598,0.000,1713320978.010
612,999.512,999.512,-1000.000,-1000.000,0.000,1713320978.015
613,-55.176,95.703,-553.223,-239.746,0.000,1713320978.019
614,-879.883,-1000.000,382.324,999.512,0.000,1713320978.022
615,610.352,149.414,-335.449,245.117,0.000,1713320978.026
616,999.512,999.512,-1000.000,-1000.000,0.000,1713320978.030
617,153.809,183.105,-811.523,-619.141,0.000,1713320978.034
618,-1000.000,-1000.000,277.344,999.512,0.000,1713320978.038
619,-1.953,-251.953,-62.012,450.684,0.000,1713320978.041
620,999.512,999.512,-1000.000,-1000.000,0.000,1713320978.045
621,501.465,598.633,-1000.000,-1000.000,0.000,1713320978.049
622,-1000.000,-1000.000,24.414,290.527,0.000,1713320978.053
623,-292.480,-339.355,209.961,985.840,0.000,1713320978.057
624,999.512,999.512,-917.480,-517.090,0.000,1713320978.062
625,999.512,999.512,-1000.000,-1000.000,0.000,1713320978.065
626,-470.215,-328.125,-323.730,-185.547,0.000,1713320978.069
627,-544.434,-806.641,419.434,999.512,0.000,1713320978.073
628,952.148,759.766,-581.543,92.773,0.000,1713320978.077
629,999.512,999.512,-1000.000,-1000.000,0.000,1713320978.080
630,68.848,151.367,-587.402,-298.828,0.000,1713320978.084
631,-938.965,-1000.000,451.172,999.512,0.000,1713320978.088
632,476.074,73.242,-210.449,242.676,0.000,1713320978.092
633,999.512,999.512,-1000.000,-1000.000,0.000,1713320978.096
634,166.992,257.812,-865.234,-781.250,0.000,1713320978.099
635,-1000.000,-1000.000,257.324,855.469,0.000,1713320978.103
636,-153.320,-279.297,13.672,578.613,0.000,1713320978.108
637,999.512,999.512,-1000.000,-959.961,0.000,1713320978.112
638,635.254,753.906,-1000.000,-1000.000,0.000,1713320978.116
639,-989.258,-894.043,-94.238,121.582,0.000,1713320978.119
640,-302.734,-484.375,241.699,999.512,0.000,1713320978.123
641,999.512,986.816,-866.211,-330.566,0.000,1713320978.127
642,999.512,999.512,-1000.000,-1000.000,0.000,1713320978.131
643,-315.430,-180.664,-406.250,-213.379,0.000,1713320978.135
644,-635.742,-928.711,472.168,999.512,0.000,1713320978.138
645,897.949,586.426,-439.941,208.496,0.000,1713320978.142
646,999.512,999.512,-1000.000,-1000.000,0.000,1713320978.146
647,129.883,163.086,-663.086,-419.434,0.000,1713320978.150
648,-1000.000,-1000.000,405.273,999.512,0.000,1713320978.155
649,255.371,-64.453,-153.809,260.254,0.000,1713320978.159
650,999.512,999.512,-1000.000,-1000.000,0.000,1713320978.163
651,275.391,375.000,-919.922,-903.320,0.000,1713320978.167
652,-1000.000,-1000.000,213.379,674.805,0.000,1713320978.170
653,-245.605,-284.180,96.191,716.309,0.000,1713320978.174
654,999.512,999.512,-1000.000,-854.980,0.000,1713320978.178
655,782.227,885.742,-1000.000,-1000.000,0.000,1713320978.182
656,-842.773,-714.355,-163.086,-5.859,0.000,1713320978.186
657,-367.676,-615.234,328.125,999.512,0.000,1713320978.189
658,999.512,922.852,-765.137,-160.156,0.000,1713320978.193
659,999.512,999.512,-1000.000,-1000.000,0.000,1713320978.197
660,-188.965,-34.668,-493.652,-221.191,0.000,1713320978.202
661,-759.277,-1000.000,447.266,999.512,0.000,1713320978.206
662,777.832,358.398,-358.398,245.117,0.000,1713320978.210
663,999.512,999.512,-1000.000,-1000.000,0.000,1713320978.214
664,145.020,172.363,-732.422,-523.438,0.000,1713320978.218
665,-1000.000,-1000.000,413.086,999.512,0.000,1713320978.221
666,108.398,-178.223,-32.227,361.328,0.000,1713320978.225
667,999.512,999.512,-1000.000,-1000.000,0.000,1713320978.229
668,390.625,486.816,-993.652,-1000.000,0.000,1713320978.233
669,-1000.000,-1000.000,161.133,465.820,0.000,1713320978.237
670,-284.668,-287.109,216.797,868.164,0.000,1713320978.240
671,999.512,999.512,-963.379,-685.547,0.000,1713320978.244
672,914.551,998.535,-1000.000,-1000.000,0.000,1713320978.249
673,-670.898,-507.812,-219.727,-117.188,0.000,1713320978.253
674,-477.051,-753.418,456.543,999.512,0.000,1713320978.257
675,989.258,818.848,-638.184,-17.578,0.000,1713320978.261
676,999.512,999.512,-1000.000,-1000.000,0.000,1713320978.264
677,-52.734,93.750,-539.062,-242.188,0.000,1713320978.268
678,-918.457,-1000.000,450.684,999.512,0.000,1713320978.272
679,555.664,126.465,-283.203,244.629,0.000,1713320978.276
680,999.512,999.512,-1000.000,-1000.000,0.000,1713320978.280
681,155.762,184.570,-782.227,-636.719,0.000,1713320978.283
682,-1000.000,-1000.000,407.227,999.512,0.000,1713320978.287
683,-20.508,-258.789,45.410,491.211,0.000,1713320978.291
684,999.512,999.512,-1000.000,-1000.000,0.000,1713320978.298
685,500.488,605.957,-1000.000,-1000.000,0.000,1713320978.302
686,-1000.000,-1000.000,93.750,283.691,0.000,1713320978.306
687,-292.969,-348.145,376.953,999.512,0.000,1713320978.310
688,999.512,999.512,-852.539,-464.844,0.000,1713320978.313
689,999.512,999.512,-1000.000,-1000.000,0.000,1713320978.317
690,-487.793,-323.242,-301.270,-188.477,0.000,1713320978.321
691,-568.359,-854.492,532.227,999.512,0.000,1713320978.325
692,943.359,706.055,-487.305,114.258,0.000,1713320978.329
693,999.512,999.512,-1000.000,-1000.000,0.000,1713320978.332
694,86.426,161.133,-568.848,-321.777,0.000,1713320978.336
695,-1000.000,-1000.000,483.398,999.512,0.000,1713320978.340
696,331.055,-9.277,-207.520,246.582,0.000,1713320978.345
697,999.512,999.512,-1000.000,-1000.000,0.000,1713320978.349
698,169.922,268.555,-855.957,-768.066,0.000,1713320978.353
699,-1000.000,-1000.000,350.586,867.188,0.000,1713320978.356
700,-166.992,-281.250,115.723,605.469,0.000,1713320978.360
701,999.512,999.512,-1000.000,-942.871,0.000,1713320978.364
702,612.305,733.887,-1000.000,-1000.000,0.000,1713320978.368
703,-1000.000,-917.969,-16.113,111.328,0.000,1713320978.372
704,-298.828,-515.625,425.781,999.512,0.000,1713320978.375
705,999.512,972.656,-774.902,-270.508,0.000,1713320978.379
706,999.512,999.512,-1000.000,-1000.000,0.000,1713320978.383
707,-333.496,-188.965,-362.305,-215.820,0.000,1713320978.387
708,-661.133,-965.332,600.586,999.512,0.000,1713320978.392
709,887.695,540.039,-365.234,223.633,0.000,1713320978.395
710,999.512,999.512,-1000.000,-1000.000,0.000,1713320978.399
711,154.785,175.293,-634.766,-433.105,0.000,1713320978.403
712,-1000.000,-1000.000,511.719,999.512,0.000,1713320978.407
713,102.051,-182.617,-85.449,284.180,0.000,1713320978.411
714,999.512,999.512,-1000.000,-1000.000,0.000,1713320978.414
715,268.555,388.184,-916.504,-907.227,0.000,1713320978.418
716,-1000.000,-1000.000,294.922,665.527,0.000,1713320978.422
717,-259.766,-279.297,221.191,756.836,0.000,1713320978.426
718,999.512,999.512,-988.281,-818.359,0.000,1713320978.430
719,790.039,904.297,-1000.000,-1000.000,0.000,1713320978.433
720,-837.402,-685.547,-103.027,-0.977,0.000,1713320978.438
721,-372.559,-622.070,522.949,999.512,0.000,1713320978.442
722,999.512,925.293,-661.133,-117.188,0.000,1713320978.446
723,999.512,999.512,-1000.000,-1000.000,0.000,1713320978.450
724,-197.266,-41.504,-450.195,-224.121,0.000,1713320978.453
725,-813.965,-1000.000,593.262,999.512,0.000,1713320978.457
726,724.609,280.762,-247.070,244.629,0.000,1713320978.461
727,999.512,999.512,-1000.000,-1000.000,0.000,1713320978.465
728,151.855,177.734,-706.543,-528.320,0.000,1713320978.469
729,-1000.000,-1000.000,515.137,999.512,0.000,1713320978.472
730,51.270,-216.309,45.410,391.113,0.000,1713320978.476
731,999.512,999.512,-1000.000,-1000.000,0.000,1713320978.480
732,382.324,492.676,-999.512,-1000.000,0.000,1713320978.485
733,-1000.000,-1000.000,179.688,431.152,0.000,1713320978.488
734,-286.621,-326.172,293.945,907.227,0.000,1713320978.492
735,999.512,999.512,-923.828,-638.672,0.000,1713320978.496
736,902.832,999.512,-1000.000,-1000.000,0.000,1713320978.500
737,-689.941,-520.996,-175.293,-125.977,0.000,1713320978.504
738,-475.586,-731.934,618.652,999.512,0.000,1713320978.508
739,992.676,841.309,-537.109,18.066,0.000,1713320978.511
740,999.512,999.512,-1000.000,-1000.000,0.000,1713320978.515
741,-46.387,97.656,-527.344,-251.953,0.000,1713320978.519
742,-1000.000,-1000.000,531.250,999.512,0.000,1713320978.523
743,441.895,48.340,-203.125,245.605,0.000,1713320978.527
744,999.512,999.512,-1000.000,-1000.000,0.000,1713320978.532
745,159.180,190.918,-776.367,-631.348,0.000,1713320978.536
746,-1000.000,-1000.000,518.555,999.512,0.000,1713320978.539
747,-58.594,-265.625,180.176,513.184,0.000,1713320978.543
748,999.512,999.512,-1000.000,-995.117,0.000,1713320978.547
749,485.840,595.703,-1000.000,-1000.000,0.000,1713320978.551
750,-1000.000,-1000.000,86.914,264.648,0.000,1713320978.555
751,-289.551,-440.430,364.746,999.512,0.000,1713320978.558
752,999.512,999.512,-845.703,-455.078,0.000,1713320978.562
753,999.512,999.512,-1000.000,-1000.000,0.000,1713320978.566
754,-494.141,-309.082,-299.805,-193.848,0.000,1713320978.570
755,-628.418,-914.551,620.117,999.512,0.000,1713320978.574
756,912.598,629.395,-405.762,151.855,0.000,1713320978.579
757,999.512,999.512,-1000.000,-1000.000,0.000,1713320978.583
758,87.402,166.016,-570.312,-324.219,0.000,1713320978.586
759,-1000.000,-1000.000,555.664,999.512,0.000,1713320978.590
760,252.441,-66.406,-127.930,243.652,0.000,1713320978.594
761,999.512,999.512,-1000.000,-1000.000,0.000,1713320978.598
762,176.270,261.719,-858.398,-791.504,0.000,1713320978.602
763,-1000.000,-1000.000,371.582,837.402,0.000,1713320978.605
764,-228.516,-277.832,185.547,629.883,0.000,1713320978.609
765,999.512,999.512,-1000.000,-933.594,0.000,1713320978.613
766,606.445,735.840,-1000.000,-1000.000,0.000,1713320978.617
767,-1000.000,-915.039,23.926,111.328,0.000,1713320978.621
768,-312.500,-531.250,498.047,999.512,0.000,1713320978.626
769,999.512,968.262,-743.652,-235.352,0.000,1713320978.629
770,999.512,999.512,-1000.000,-1000.000,0.000,1713320978.633
771,-313.477,-150.391,-376.953,-217.773,0.000,1713320978.637
772,-809.082,-1000.000,586.426,999.512,0.000,1713320978.641
773,749.512,345.703,-354.492,229.004,0.000,1713320978.645
774,999.512,999.512,-1000.000,-1000.000,0.000,1713320978.649
775,141.113,172.852,-627.930,-427.734,0.000,1713320978.652
776,-1000.000,-1000.000,585.938,999.512,0.000,1713320978.656
777,113.281,-153.320,-6.836,302.734,0.000,1713320978.660
778,999.512,999.512,-1000.000,-1000.000,0.000,1713320978.664
779,253.418,372.559,-925.293,-921.875,0.000,1713320978.668
780,-1000.000,-1000.000,293.457,645.996,0.000,1713320978.672
781,-277.344,-281.250,248.047,777.344,0.000,1713320978.676
782,999.512,999.512,-978.516,-797.852,0.000,1713320978.680
783,756.348,875.977,-1000.000,-1000.000,0.000,1713320978.684
784,-886.230,-724.609,-58.105,-8.301,0.000,1713320978.688
785,-412.109,-654.297,625.488,999.512,0.000,1713320978.692
786,999.512,906.738,-579.590,-76.660,0.000,1713320978.695
787,999.512,999.512,-1000.000,-1000.000,0.000,1713320978.699
788,-175.293,-22.949,-449.219,-228.027,0.000,1713320978.703
789,-952.637,-1000.000,625.488,999.512,0.000,1713320978.707
790,552.246,142.578,-215.332,244.629,0.000,1713320978.711
791,999.512,999.512,-1000.000,-1000.000,0.000,1713320978.714
792,160.156,187.012,-709.961,-545.410,0.000,1713320978.719
793,-1000.000,-1000.000,551.758,999.512,0.000,1713320978.723
794,-40.527,-259.766,94.238,414.551,0.000,1713320978.727
795,999.512,999.512,-1000.000,-1000.000,0.000,1713320978.731
796,369.629,494.141,-1000.000,-1000.000,0.000,1713320978.734
797,-1000.000,-1000.000,227.539,430.664,0.000,1713320978.738
798,-285.156,-349.609,376.953,930.176,0.000,1713320978.742
799,999.512,999.512,-904.297,-604.980,0.000,1713320978.746
800,872.070,983.398,-1000.000,-1000.000,0.000,1713320978.750
801,-735.352,-544.434,-189.941,-130.859,0.000,1713320978.754
802,-540.039,-796.387,655.762,999.512,0.000,1713320978.757
803,960.938,775.879,-473.145,47.363,0.000,1713320978.761
804,999.512,999.512,-1000.000,-1000.000,0.000,1713320978.766
805,-64.941,84.961,-496.582,-240.234,0.000,1713320978.770
806,-994.629,-1000.000,693.359,999.512,0.000,1713320978.774
807,458.984,71.777,-94.727,242.188,0.000,1713320978.777
808,999.512,999.512,-1000.000,-1000.000,0.000,1713320978.781
809,170.898,189.941,-761.230,-642.578,0.000,1713320978.785
810,-1000.000,-1000.000,540.527,999.512,0.000,1713320978.789
811,-167.969,-276.855,181.641,514.160,0.000,1713320978.793
812,999.512,999.512,-1000.000,-998.535,0.000,1713320978.796
813,496.094,609.863,-1000.000,-1000.000,0.000,1713320978.800
814,-1000.000,-1000.000,141.602,260.254,0.000,1713320978.804
815,-292.480,-426.758,519.043,999.512,0.000,1713320978.808
816,999.512,999.512,-774.414,-407.715,0.000,1713320978.813
817,974.609,999.512,-1000.000,-1000.000,0.000,1713320978.816
818,-549.316,-319.824,-280.273,-199.707,0.000,1713320978.820
819,-733.398,-1000.000,666.016,999.512,0.000,1713320978.824
820,825.684,475.586,-371.582,172.852,0.000,1713320978.828
821,999.512,999.512,-1000.000,-1000.000,0.000,1713320978.832
822,67.383,158.203,-556.152,-310.059,0.000,1713320978.835
823,-1000.000,-1000.000,712.891,999.512,0.000,1713320978.839
824,301.758,-13.184,24.414,243.164,0.000,1713320978.843
825,999.512,999.512,-1000.000,-1000.000,0.000,1713320978.847
826,178.223,246.094,-869.629,-792.480,0.000,1713320978.851
827,-1000.000,-1000.000,435.547,832.031,0.000,1713320978.855
828,-264.160,-278.809,283.203,656.250,0.000,1713320978.859
829,999.512,999.512,-1000.000,-908.691,0.000,1713320978.863
830,579.590,715.332,-1000.000,-1000.000,0.000,1713320978.867
831,-1000.000,-936.035,50.293,98.145,0.000,1713320978.871
832,-348.633,-582.520,605.469,999.512,0.000,1713320978.874
833,999.512,945.312,-675.781,-190.918,0.000,1713320978.878
834,999.512,999.512,-1000.000,-1000.000,0.000,1713320978.882
835,-326.660,-152.832,-355.957,-221.191,0.000,1713320978.886
836,-944.824,-1000.000,684.082,999.512,0.000,1713320978.890
837,588.867,203.125,-258.789,238.281,0.000,1713320978.893
838,999.512,999.512,-1000.000,-1000.000,0.000,1713320978.897
839,138.672,181.152,-645.996,-445.312,0.000,1713320978.901
840,-1000.000,-1000.000,625.488,999.512,0.000,1713320978.906
841,44.434,-203.125,82.031,333.984,0.000,1713320978.910
842,999.512,999.512,-1000.000,-1000.000,0.000,1713320978.914
843,252.441,380.859,-900.391,-915.039,0.000,1713320978.918
844,-1000.000,-1000.000,408.691,646.973,0.000,1713320978.922
845,-280.762,-317.383,360.840,821.289,0.000,1713320978.925
846,999.512,999.512,-944.824,-738.281,0.000,1713320978.929
847,715.820,853.027,-1000.000,-1000.000,0.000,1713320978.933
848,-937.500,-750.977,-86.914,-24.902,0.000,1713320978.937
849,-481.445,-726.562,631.348,999.512,0.000,1713320978.941
850,988.281,841.309,-547.363,-52.734,0.000,1713320978.944
851,999.512,999.512,-1000.000,-1000.000,0.000,1713320978.948
852,-209.961,-44.434,-427.246,-229.980,0.000,1713320978.953
853,-955.566,-1000.000,703.613,999.512,0.000,1713320978.957
854,555.176,163.574,-164.062,244.629,0.000,1713320978.961
855,999.512,999.512,-1000.000,-1000.000,0.000,1713320978.965
856,175.781,187.500,-723.145,-557.617,0.000,1713320978.969
857,-1000.000,-1000.000,536.133,999.512,0.000,1713320978.972
858,-187.012,-277.832,123.535,432.129,0.000,1713320978.976
859,999.512,999.512,-1000.000,-1000.000,0.000,1713320978.980
860,374.023,493.164,-981.445,-1000.000,0.000,1713320978.984
861,-1000.000,-1000.000,346.191,438.477,0.000,1713320978.988
862,-283.203,-368.164,542.969,972.168,0.000,1713320978.991
863,999.512,999.512,-827.148,-538.086,0.000,1713320978.995
864,843.750,966.309,-1000.000,-1000.000,0.000,1713320979.000
865,-769.043,-527.832,-188.965,-149.414,0.000,1713320979.004
866,-648.926,-933.105,665.039,999.512,0.000,1713320979.008
867,903.809,613.281,-460.938,70.312,0.000,1713320979.012
868,999.512,999.512,-1000.000,-1000.000,0.000,1713320979.016
869,-71.289,79.102,-490.723,-250.977,0.000,1713320979.019
870,-1000.000,-1000.000,735.352,999.512,0.000,1713320979.023
871,327.637,12.207,-49.316,242.676,0.000,1713320979.027
872,999.512,999.512,-1000.000,-1000.000,0.000,1713320979.031
873,178.711,196.289,-779.785,-662.598,0.000,1713320979.035
874,-1000.000,-1000.000,552.734,981.445,0.000,1713320979.038
875,-234.863,-276.855,246.582,558.105,0.000,1713320979.042
876,999.512,999.512,-1000.000,-975.586,0.000,1713320979.048
877,472.656,584.961,-1000.000,-1000.000,0.000,1713320979.052
878,-1000.000,-1000.000,178.223,235.352,0.000,1713320979.055
879,-297.363,-471.680,593.750,999.512,0.000,1713320979.059
880,999.512,999.512,-724.609,-323.730,0.000,1713320979.063
881,955.078,999.512,-1000.000,-1000.000,0.000,1713320979.067
882,-594.727,-345.703,-263.184,-202.637,0.000,1713320979.071
883,-708.984,-996.582,758.301,999.512,0.000,1713320979.074
884,858.398,523.438,-283.691,201.172,0.000,1713320979.078
885,999.512,999.512,-1000.000,-1000.000,0.000,1713320979.082
886,64.941,167.969,-571.777,-348.633,0.000,1713320979.086
887,-1000.000,-1000.000,682.129,999.512,0.000,1713320979.090
888,48.828,-196.777,13.672,259.277,0.000,1713320979.095
889,999.512,999.512,-1000.000,-1000.000,0.000,1713320979.098
890,193.359,275.391,-835.449,-788.574,0.000,1713320979.102
891,-1000.000,-1000.000,520.996,829.102,0.000,1713320979.106
892,-270.508,-275.879,346.680,695.312,0.000,1713320979.110
893,999.512,999.512,-992.676,-868.652,0.000,1713320979.114
894,581.543,722.168,-1000.000,-1000.000,0.000,1713320979.118
895,-1000.000,-923.828,52.246,88.379,0.000,1713320979.121
896,-405.762,-630.371,662.598,999.512,0.000,1713320979.125
897,999.512,916.016,-625.488,-164.062,0.000,1713320979.129
898,999.512,999.512,-1000.000,-1000.000,0.000,1713320979.133
899,-347.168,-153.320,-331.543,-223.145,0.000,1713320979.137
900,-927.246,-1000.000,797.852,999.512,0.000,1713320979.141
901,613.770,227.539,-181.152,243.164,0.000,1713320979.145
902,999.512,999.512,-1000.000,-1000.000,0.000,1713320979.149
903,148.438,185.059,-632.324,-450.195,0.000,1713320979.153
904,-1000.000,-1000.000,663.086,999.512,0.000,1713320979.157
905,-62.988,-259.766,101.562,355.469,0.000,1713320979.160
906,999.512,999.512,-1000.000,-1000.000,0.000,1713320979.164
907,263.672,394.531,-953.125,-928.711,0.000,1713320979.168
908,-1000.000,-1000.000,359.375,621.094,0.000,1713320979.172
909,-281.250,-314.941,478.516,858.398,0.000,1713320979.176
910,999.512,999.512,-888.184,-694.824,0.000,1713320979.180
911,689.941,832.520,-1000.000,-1000.000,0.000,1713320979.183
912,-960.938,-752.930,-49.316,-29.297,0.000,1713320979.188
913,-548.828,-808.594,754.395,999.512,0.000,1713320979.192
914,957.031,757.812,-479.980,-30.273,0.000,1713320979.196
915,999.512,999.512,-1000.000,-1000.000,0.000,1713320979.200
916,-194.336,-40.039,-424.805,-232.422,0.000,1713320979.203
917,-1000.000,-1000.000,740.234,999.512,0.000,1713320979.207
918,370.117,60.547,-116.699,244.141,0.000,1713320979.211
919,999.512,999.512,-1000.000,-1000.000,0.000,1713320979.215
920,173.340,195.312,-708.984,-556.641,0.000,1713320979.219
921,-1000.000,-1000.000,637.207,999.512,0.000,1713320979.222
922,-157.715,-276.855,205.566,470.703,0.000,1713320979.226
923,999.512,999.512,-1000.000,-1000.000,0.000,1713320979.230
924,355.469,489.258,-1000.000,-1000.000,0.000,1713320979.235
925,-1000.000,-1000.000,290.527,410.645,0.000,1713320979.238
926,-281.738,-424.805,564.941,999.512,0.000,1713320979.242
927,999.512,999.512,-800.293,-499.023,0.000,1713320979.246
928,840.332,977.539,-1000.000,-1000.000,0.000,1713320979.250
929,-771.973,-528.809,-175.293,-147.461,0.000,1713320979.254
930,-657.715,-937.012,761.719,999.512,0.000,1713320979.258
931,898.438,608.398,-366.211,91.309,0.000,1713320979.261
932,999.512,999.512,-1000.000,-1000.000,0.000,1713320979.265
933,-76.172,74.707,-480.469,-248.047,0.000,1713320979.269
934,-1000.000,-1000.000,814.453,999.512,0.000,1713320979.273
935,274.902,-16.602,19.043,241.211,0.000,1713320979.277
936,999.512,999.512,-1000.000,-1000.000,0.000,1713320979.282
937,181.641,199.219,-756.348,-659.180,0.000,1713320979.286
938,-1000.000,-1000.000,606.934,982.910,0.000,1713320979.289
939,-252.930,-276.855,309.082,574.707,0.000,1713320979.293
940,999.512,999.512,-1000.000,-966.309,0.000,1713320979.297
941,467.285,583.496,-1000.000,-1000.000,0.000,1713320979.301
942,-1000.000,-1000.000,196.777,232.910,0.000,1713320979.305
943,-325.195,-519.043,677.246,999.512,0.000,1713320979.309
944,999.512,983.887,-661.133,-289.551,0.000,1713320979.312
945,945.801,999.512,-1000.000,-1000.000,0.000,1713320979.316
946,-583.984,-334.473,-237.793,-205.078,0.000,1713320979.320
947,-826.660,-1000.000,812.012,999.512,0.000,1713320979.324
948,738.281,385.742,-251.953,209.961,0.000,1713320979.329
949,999.512,999.512,-1000.000,-1000.000,0.000,1713320979.333
950,42.969,165.039,-556.152,-342.773,0.000,1713320979.336
951,-1000.000,-1000.000,773.438,999.512,0.000,1713320979.340
952,52.246,-187.500,95.703,276.367,0.000,1713320979.344
953,999.512,999.512,-1000.000,-1000.000,0.000,1713320979.348
954,193.359,262.695,-850.098,-793.457,0.000,1713320979.352
955,-1000.000,-1000.000,550.293,821.289,0.000,1713320979.356
956,-271.484,-275.879,462.891,721.680,0.000,1713320979.359
957,999.512,999.512,-952.148,-842.285,0.000,1713320979.363
958,557.617,693.848,-1000.000,-1000.000,0.000,1713320979.367
959,-1000.000,-940.918,70.801,83.008,0.000,1713320979.371
960,-474.121,-695.801,709.473,999.512,0.000,1713320979.376
961,999.512,863.281,-586.426,-142.578,0.000,1713320979.379
962,999.512,999.512,-1000.000,-1000.000,0.000,1713320979.383
963,-363.281,-171.387,-323.730,-224.121,0.000,1713320979.387
964,-1000.000,-1000.000,842.285,999.512,0.000,1713320979.391
965,495.605,147.461,-154.785,243.164,0.000,1713320979.395
966,999.512,999.512,-1000.000,-1000.000,0.000,1713320979.399
967,146.484,189.941,-628.906,-454.102,0.000,1713320979.402
968,-1000.000,-1000.000,739.746,999.512,0.000,1713320979.406
969,-75.195,-262.695,203.125,378.418,0.000,1713320979.410
970,999.512,999.512,-1000.000,-1000.000,0.000,1713320979.414
971,247.559,381.836,-928.223,-928.711,0.000,1713320979.418
972,-1000.000,-1000.000,429.688,620.605,0.000,1713320979.422
973,-277.344,-350.586,528.809,878.418,0.000,1713320979.426
974,999.512,999.512,-868.164,-669.434,0.000,1713320979.430
975,698.242,853.516,-1000.000,-1000.000,0.000,1713320979.434
976,-954.102,-746.582,-37.598,-28.809,0.000,1713320979.438
977,-539.062,-781.738,779.785,999.512,0.000,1713320979.442
978,968.262,792.480,-432.617,-5.371,0.000,1713320979.445
979,999.512,999.512,-1000.000,-1000.000,0.000,1713320979.449
980,-197.754,-46.387,-426.270,-235.352,0.000,1713320979.453
981,-1000.000,-1000.000,799.316,999.512,0.000,1713320979.457
982,300.781,20.020,-56.641,243.652,0.000,1713320979.461
983,999.512,999.512,-1000.000,-1000.000,0.000,1713320979.465
984,180.664,199.707,-707.031,-558.594,0.000,1713320979.469
985,-1000.000,-1000.000,662.598,999.512,0.000,1713320979.473
986,-220.703,-276.367,256.348,491.211,0.000,1713320979.477
987,999.512,999.512,-1000.000,-1000.000,0.000,1713320979.481
988,360.352,490.723,-1000.000,-1000.000,0.000,1713320979.485
989,-1000.000,-1000.000,319.824,403.809,0.000,1713320979.488
990,-298.340,-459.961,632.812,999.512,0.000,1713320979.492
991,999.512,999.512,-757.812,-468.750,0.000,1713320979.496
992,819.824,959.473,-1000.000,-1000.000,0.000,1713320979.500
993,-759.277,-514.160,-133.301,-148.438,0.000,1713320979.504
994,-817.383,-1000.000,802.246,999.512,0.000,1713320979.508
995,741.699,435.059,-340.820,120.605,0.000,1713320979.511
996,999.512,999.512,-1000.000,-1000.000,0.000,1713320979.516
997,-79.102,76.172,-479.492,-260.254,0.000,1713320979.520
998,-1000.000,-1000.000,828.125,999.512,0.000,1713320979.524
999,162.598,-88.867,41.504,241.699,0.000,1713320979.528
1000,999.512,999.512,-1000.000,-1000.000,0.000,1713320979.531
1001,188.477,208.008,-759.277,-662.598,0.000,1713320979.535
1002,-1000.000,-1000.000,640.625,978.027,0.000,1713320979.539
1003,-267.090,-275.391,354.980,594.727,0.000,1713320979.543
1004,999.512,999.512,-1000.000,-952.637,0.000,1713320979.547
1005,456.055,580.078,-1000.000,-1000.000,0.000,1713320979.551
1006,-1000.000,-1000.000,193.359,213.867,0.000,1713320979.554
1007,-337.891,-535.645,719.238,999.512,0.000,1713320979.558
1008,999.512,970.703,-630.371,-254.883,0.000,1713320979.563
1009,944.336,999.512,-1000.000,-1000.000,0.000,1713320979.567
1010,-589.844,-317.871,-227.051,-207.031,0.000,1713320979.570
1011,-826.172,-1000.000,870.117,999.512,0.000,1713320979.574
1012,734.375,389.160,-211.426,220.215,0.000,1713320979.578
1013,999.512,999.512,-1000.000,-1000.000,0.000,1713320979.582
1014,45.898,166.016,-570.312,-339.355,0.000,1713320979.586
1015,-1000.000,-1000.000,814.941,999.512,0.000,1713320979.590
1016,90.332,-152.832,173.340,290.039,0.000,1713320979.593
1017,999.512,999.512,-1000.000,-1000.000,0.000,1713320979.597
1018,190.430,252.930,-841.797,-796.875,0.000,1713320979.601
1019,-1000.000,-1000.000,567.871,817.871,0.000,1713320979.605
1020,-275.879,-275.391,486.816,735.352,0.000,1713320979.609
1021,999.512,999.512,-935.547,-827.637,0.000,1713320979.613
1022,562.012,702.148,-1000.000,-1000.000,0.000,1713320979.617
1023,-1000.000,-930.664,92.773,77.148,0.000,1713320979.621
1024,-481.934,-703.125,777.832,999.512,0.000,1713320979.625
1025,992.676,852.539,-534.668,-128.418,0.000,1713320979.629
1026,999.512,999.512,-1000.000,-1000.000,0.000,1713320979.632
1027,-366.211,-157.227,-309.082,-225.586,0.000,1713320979.636
1028,-954.590,-1000.000,937.012,999.512,0.000,1713320979.640
1029,575.684,196.289,-53.711,243.164,0.000,1713320979.644
1030,999.512,999.512,-1000.000,-1000.000,0.000,1713320979.648
1031,151.367,187.988,-612.793,-458.984,0.000,1713320979.652
1032,-1000.000,-1000.000,782.227,999.512,0.000,1713320979.656
1033,-131.348,-274.414,232.910,395.020,0.000,1713320979.660
1034,999.512,999.512,-1000.000,-1000.000,0.000,1713320979.664
1035,243.652,376.465,-924.316,-938.965,0.000,1713320979.668
1036,-1000.000,-1000.000,448.730,596.680,0.000,1713320979.672
1037,-276.367,-350.098,600.098,914.551,0.000,1713320979.676
1038,999.512,999.512,-811.523,-622.070,0.000,1713320979.679
1039,672.852,830.566,-1000.000,-1000.000,0.000,1713320979.683
1040,-975.098,-751.953,-11.230,-37.109,0.000,1713320979.687
1041,-586.426,-850.098,862.305,999.512,0.000,1713320979.691
1042,937.012,707.031,-374.512,14.648,0.000,1713320979.695
1043,999.512,999.512,-1000.000,-1000.000,0.000,1713320979.699
1044,-217.285,-51.270,-413.574,-237.305,0.000,1713320979.703
1045,-1000.000,-1000.000,896.973,999.512,0.000,1713320979.707
1046,345.215,41.016,18.555,243.652,0.000,1713320979.711
1047,999.512,999.512,-1000.000,-1000.000,0.000,1713320979.715
1048,179.199,197.266,-704.102,-556.641,0.000,1713320979.719
1049,-1000.000,-1000.000,699.707,999.512,0.000,1713320979.723
1050,-212.402,-276.367,339.355,499.512,0.000,1713320979.726
1051,999.512,999.512,-1000.000,-1000.000,0.000,1713320979.730
1052,341.309,480.469,-998.047,-1000.000,0.000,1713320979.734
1053,-1000.000,-1000.000,358.398,390.137,0.000,1713320979.738
1054,-303.223,-473.145,681.641,999.512,0.000,1713320979.742
1055,999.512,999.512,-722.168,-444.824,0.000,1713320979.746
1056,824.707,971.191,-1000.000,-1000.000,0.000,1713320979.751
1057,-782.227,-529.297,-141.602,-150.391,0.000,1713320979.755
1058,-720.703,-998.047,897.461,999.512,0.000,1713320979.759
1059,846.191,523.926,-250.488,144.531,0.000,1713320979.762
1060,999.512,999.512,-1000.000,-1000.000,0.000,1713320979.766
1061,-92.285,47.363,-483.398,-270.508,0.000,1713320979.770
1062,-1000.000,-1000.000,859.863,999.512,0.000,1713320979.774
1063,116.699,-111.328,83.496,242.188,0.000,1713320979.778
1064,999.512,999.512,-1000.000,-1000.000,0.000,1713320979.782
1065,191.406,211.914,-779.785,-675.293,0.000,1713320979.785
1066,-1000.000,-1000.000,622.559,965.332,0.000,1713320979.789
1067,-265.625,-274.902,416.016,613.281,0.000,1713320979.793
1068,999.512,999.512,-1000.000,-944.336,0.000,1713320979.798
1069,445.312,571.777,-1000.000,-1000.000,0.000,1713320979.802
1070,-1000.000,-1000.000,232.422,211.914,0.000,1713320979.805
1071,-410.156,-605.957,765.137,999.512,0.000,1713320979.809
1072,999.512,938.965,-591.309,-231.445,0.000,1713320979.813
1073,923.340,999.512,-1000.000,-1000.000,0.000,1713320979.817
1074,-602.051,-329.102,-218.750,-209.961,0.000,1713320979.821
1075,-937.500,-1000.000,917.480,999.512,0.000,1713320979.825
1076,596.680,248.535,-167.969,223.145,0.000,1713320979.828
1077,999.512,999.512,-1000.000,-1000.000,0.000,1713320979.832
1078,30.762,168.457,-540.039,-337.891,0.000,1713320979.836
1079,-1000.000,-1000.000,861.328,999.512,0.000,1713320979.840
1080,-21.973,-236.816,187.500,298.828,0.000,1713320979.845
1081,999.512,999.512,-1000.000,-1000.000,0.000,1713320979.848
1082,201.660,265.137,-830.078,-776.855,0.000,1713320979.852
1083,-1000.000,-1000.000,584.473,834.961,0.000,1713320979.856
1084,-276.367,-287.109,517.578,758.301,0.000,1713320979.860
1085,999.512,999.512,-912.598,-800.293,0.000,1713320979.864
1086,547.363,689.453,-1000.000,-1000.000,0.000,1713320979.868
1087,-1000.000,-937.500,99.609,83.008,0.000,1713320979.871
1088,-510.254,-738.281,817.871,999.512,0.000,1713320979.875
1089,985.352,820.801,-484.863,-100.586,0.000,1713320979.879
1090,999.512,999.512,-1000.000,-1000.000,0.000,1713320979.883
1091,-372.559,-170.898,-295.410,-228.027,0.000,1713320979.887
1092,-1000.000,-1000.000,954.590,999.512,0.000,1713320979.891
1093,441.895,119.141,-59.082,242.188,0.000,1713320979.895
1094,999.512,999.512,-1000.000,-1000.000,0.000,1713320979.899
1095,142.578,191.895,-625.977,-443.359,0.000,1713320979.903
1096,-1000.000,-1000.000,795.898,999.512,0.000,1713320979.907
1097,-99.121,-270.020,282.227,406.250,0.000,1713320979.910
1098,999.512,999.512,-1000.000,-1000.000,0.000,1713320979.914
1099,236.328,378.418,-917.480,-920.898,0.000,1713320979.918
1100,-1000.000,-1000.000,475.586,622.070,0.000,1713320979.922
1101,-276.367,-382.324,638.184,925.293,0.000,1713320979.926
1102,999.512,999.512,-784.180,-604.492,0.000,1713320979.930
1103,674.316,835.449,-1000.000,-1000.000,0.000,1713320979.934
1104,-970.215,-736.328,-4.395,-26.367,0.000,1713320979.938
1105,-629.395,-902.344,877.930,999.512,0.000,1713320979.942
1106,912.598,642.090,-368.164,24.902,0.000,1713320979.946
1107,999.512,999.512,-1000.000,-1000.000,0.000,1713320979.950
1108,-215.820,-48.340,-400.879,-238.770,0.000,1713320979.953
1109,-1000.000,-1000.000,940.430,999.512,0.000,1713320979.957
1110,323.730,33.691,68.848,243.164,0.000,1713320979.961
1111,999.512,999.512,-1000.000,-1000.000,0.000,1713320979.965
1112,182.129,198.242,-684.570,-547.363,0.000,1713320979.969
1113,-1000.000,-1000.000,750.488,999.512,0.000,1713320979.973
1114,-238.770,-276.367,354.980,509.277,0.000,1713320979.976
1115,999.512,999.512,-1000.000,-1000.000,0.000,1713320979.980
1116,352.051,487.793,-1000.000,-1000.000,0.000,1713320979.985
1117,-1000.000,-1000.000,334.473,381.836,0.000,1713320979.988
1118,-330.566,-517.090,709.961,999.512,0.000,1713320979.992
1119,999.512,999.512,-686.035,-402.344,0.000,1713320979.996
1120,815.918,968.262,-1000.000,-1000.000,0.000,1713320980.000
1121,-787.109,-527.344,-111.328,-151.367,0.000,1713320980.004
1122,-771.973,-1000.000,945.312,999.512,0.000,1713320980.008
1123,791.504,450.195,-237.305,156.250,0.000,1713320980.012
1124,999.512,999.512,-1000.000,-1000.000,0.000,1713320980.015
1125,-81.543,73.730,-480.469,-265.137,0.000,1713320980.019
1126,-1000.000,-1000.000,888.672,999.512,0.000,1713320980.023
1127,106.445,-119.141,114.746,241.211,0.000,1713320980.027
1128,999.512,999.512,-1000.000,-1000.000,0.000,1713320980.032
1129,192.383,211.426,-760.254,-662.109,0.000,1713320980.036
1130,-1000.000,-1000.000,660.645,974.121,0.000,1713320980.039
1131,-265.625,-274.902,456.543,627.441,0.000,1713320980.043
1132,999.512,999.512,-979.004,-930.176,0.000,1713320980.047
1133,458.008,581.543,-1000.000,-1000.000,0.000,1713320980.051
1134,-1000.000,-1000.000,233.398,223.145,0.000,1713320980.055
1135,-403.809,-600.586,763.672,999.512,0.000,1713320980.059
1136,999.512,938.477,-593.750,-237.305,0.000,1713320980.062
1137,944.824,999.512,-1000.000,-1000.000,0.000,1713320980.066
1138,-598.633,-329.590,-220.215,-209.961,0.000,1713320980.070
1139,-860.352,-1000.000,965.820,999.512,0.000,1713320980.074
1140,695.801,333.008,-110.352,229.004,0.000,1713320980.079
1141,999.512,999.512,-1000.000,-1000.000,0.000,1713320980.082
1142,49.805,172.363,-553.711,-345.703,0.000,1713320980.086
1143,-1000.000,-1000.000,864.258,999.512,0.000,1713320980.090
1144,-29.785,-243.164,218.262,304.199,0.000,1713320980.094
1145,999.512,999.512,-1000.000,-1000.000,0.000,1713320980.098
1146,202.148,282.715,-833.984,-801.270,0.000,1713320980.102
1147,-1000.000,-1000.000,593.262,796.875,0.000,1713320980.106
1148,-276.367,-332.520,541.992,794.922,0.000,1713320980.109
1149,999.512,999.512,-891.602,-761.230,0.000,1713320980.113
1150,555.664,705.078,-1000.000,-1000.000,0.000,1713320980.117
1151,-1000.000,-933.105,92.773,71.777,0.000,1713320980.121
1152,-505.371,-731.934,833.496,999.512,0.000,1713320980.126
1153,987.793,827.148,-458.008,-73.730,0.000,1713320980.129
1154,999.512,999.512,-1000.000,-1000.000,0.000,1713320980.133
1155,-340.332,-156.250,-297.852,-230.469,0.000,1713320980.137
1156,-1000.000,-1000.000,944.336,999.512,0.000,1713320980.141
1157,354.004,77.148,-59.082,242.188,0.000,1713320980.145
1158,999.512,999.512,-1000.000,-1000.000,0.000,1713320980.149
1159,150.391,196.289,-602.539,-454.102,0.000,1713320980.152
1160,-1000.000,-1000.000,832.520,999.512,0.000,1713320980.156
1161,-104.004,-272.949,317.871,429.199,0.000,1713320980.160
1162,999.512,999.512,-1000.000,-1000.000,0.000,1713320980.164
1163,242.188,383.301,-919.922,-939.941,0.000,1713320980.168
1164,-1000.000,-1000.000,472.168,588.867,0.000,1713320980.172
1165,-276.367,-363.770,655.762,956.055,0.000,1713320980.176
1166,999.512,999.512,-763.184,-558.594,0.000,1713320980.180
1167,682.617,836.914,-1000.000,-1000.000,0.000,1713320980.184
1168,-955.078,-721.680,-19.531,-51.270,0.000,1713320980.188
1169,-660.156,-919.922,892.578,999.512,0.000,1713320980.192
1170,885.254,619.141,-333.008,50.781,0.000,1713320980.195
1171,999.512,999.512,-1000.000,-1000.000,0.000,1713320980.199
1172,-182.129,-22.949,-413.086,-241.211,0.000,1713320980.203
1173,-1000.000,-1000.000,926.758,999.512,0.000,1713320980.207
1174,233.887,-10.254,59.570,243.164,0.000,1713320980.211
1175,999.512,999.512,-1000.000,-1000.000,0.000,1713320980.215
1176,184.082,201.660,-705.566,-569.336,0.000,1713320980.219
1177,-1000.000,-1000.000,725.098,999.512,0.000,1713320980.223
1178,-236.816,-275.879,401.855,543.945,0.000,1713320980.227
1179,999.512,999.512,-1000.000,-992.676,0.000,1713320980.231
1180,357.422,489.258,-1000.000,-1000.000,0.000,1713320980.235
1181,-1000.000,-1000.000,317.383,359.863,0.000,1713320980.238
1182,-331.543,-516.113,731.934,999.512,0.000,1713320980.242
1183,999.512,999.512,-650.391,-352.051,0.000,1713320980.246
1184,830.078,989.746,-1000.000,-1000.000,0.000,1713320980.250
1185,-781.250,-510.742,-105.957,-159.668,0.000,1713320980.254
1186,-729.492,-1000.000,983.398,999.512,0.000,1713320980.258
1187,834.961,509.766,-187.988,185.547,0.000,1713320980.262
1188,999.512,999.512,-1000.000,-1000.000,0.000,1713320980.266
1189,-64.453,85.938,-504.395,-283.203,0.000,1713320980.270
1190,-1000.000,-1000.000,884.766,999.512,0.000,1713320980.274
1191,72.266,-156.738,154.297,246.582,0.000,1713320980.278
1192,999.512,999.512,-1000.000,-1000.000,0.000,1713320980.281
1193,194.336,216.797,-765.137,-677.734,0.000,1713320980.285
1194,-1000.000,-1000.000,655.273,952.637,0.000,1713320980.289
1195,-265.137,-273.926,485.840,655.273,0.000,1713320980.293
1196,999.512,999.512,-946.777,-904.785,0.000,1713320980.297
1197,479.492,597.656,-1000.000,-1000.000,0.000,1713320980.301
1198,-1000.000,-1000.000,223.145,204.590,0.000,1713320980.304
1199,-360.840,-553.223,812.012,999.512,0.000,1713320980.308
1200,999.512,971.680,-529.785,-185.059,0.000,1713320980.313
1201,932.129,999.512,-1000.000,-1000.000,0.000,1713320980.317
1202,-588.379,-314.453,-212.891,-216.797,0.000,1713320980.320
1203,-895.996,-1000.000,999.512,999.512,0.000,1713320980.324
1204,656.738,274.902,-65.430,238.770,0.000,1713320980.328
1205,999.512,999.512,-1000.000,-1000.000,0.000,1713320980.332
1206,49.805,172.852,-539.062,-365.723,0.000,1713320980.336
1207,-1000.000,-1000.000,879.883,999.512,0.000,1713320980.340
1208,-78.125,-258.301,217.285,320.801,0.000,1713320980.343
1209,999.512,999.512,-1000.000,-1000.000,0.000,1713320980.347
1210,207.520,280.762,-855.957,-823.730,0.000,1713320980.351
1211,-1000.000,-1000.000,551.270,774.414,0.000,1713320980.355
1212,-275.391,-330.078,563.477,794.922,0.000,1713320980.359
1213,999.512,999.512,-874.512,-767.090,0.000,1713320980.363
1214,575.195,733.887,-1000.000,-1000.000,0.000,1713320980.367
1215,-1000.000,-901.855,111.328,76.172,0.000,1713320980.371
1216,-499.512,-736.816,879.883,999.512,0.000,1713320980.375
1217,992.676,826.660,-421.387,-82.031,0.000,1713320980.379
1218,999.512,999.512,-1000.000,-1000.000,0.000,1713320980.382
1219,-327.637,-140.625,-311.523,-229.980,0.000,1713320980.386
1220,-1000.000,-1000.000,967.285,999.512,0.000,1713320980.390
1221,325.195,56.641,-12.695,243.164,0.000,1713320980.394
1222,999.512,999.512,-1000.000,-1000.000,0.000,1713320980.398
1223,154.785,198.242,-619.141,-469.238,0.000,1713320980.402
1224,-1000.000,-1000.000,817.871,999.512,0.000,1713320980.406
1225,-148.926,-273.926,328.613,418.945,0.000,1713320980.410
1226,999.512,999.512,-1000.000,-1000.000,0.000,1713320980.414
1227,254.395,391.113,-937.988,-957.520,0.000,1713320980.418
1228,-1000.000,-1000.000,449.219,563.477,0.000,1713320980.422
1229,-310.547,-462.891,635.742,948.730,0.000,1713320980.426
1230,999.512,999.512,-779.785,-573.242,0.000,1713320980.429
1231,706.543,887.207,-1000.000,-1000.000,0.000,1713320980.433
1232,-951.172,-715.332,-39.062,-63.477,0.000,1713320980.437
1233,-582.520,-839.844,934.082,999.512,0.000,1713320980.441
1234,941.895,720.215,-270.996,78.125,0.000,1713320980.445
1235,999.512,999.512,-1000.000,-1000.000,0.000,1713320980.449
1236,-162.109,-8.789,-400.879,-244.141,0.000,1713320980.453
1237,-1000.000,-1000.000,964.844,999.512,0.000,1713320980.457
1238,198.242,-44.434,95.215,242.676,0.000,1713320980.461
1239,999.512,999.512,-1000.000,-1000.000,0.000,1713320980.465
1240,186.523,205.566,-702.637,-573.242,0.000,1713320980.469
1241,-1000.000,-1000.000,721.191,999.512,0.000,1713320980.473
1242,-245.117,-275.879,424.805,567.871,0.000,1713320980.476
1243,999.512,999.512,-1000.000,-978.027,0.000,1713320980.480
1244,369.629,500.488,-1000.000,-1000.000,0.000,1713320980.484
1245,-1000.000,-1000.000,347.168,350.098,0.000,1713320980.488
1246,-338.379,-531.738,752.930,999.512,0.000,1713320980.492
1247,999.512,999.512,-633.789,-322.754,0.000,1713320980.496
1248,817.871,970.215,-1000.000,-1000.000,0.000,1713320980.500
1249,-762.695,-506.836,-129.395,-177.734,0.000,1713320980.504
1250,-842.285,-1000.000,966.797,999.512,0.000,1713320980.508
1251,708.496,378.906,-180.664,199.707,0.000,1713320980.512
1252,999.512,999.512,-1000.000,-1000.000,0.000,1713320980.516
1253,-63.477,96.680,-479.980,-282.227,0.000,1713320980.520
1254,-1000.000,-1000.000,934.570,999.512,0.000,1713320980.523
1255,81.543,-150.391,200.684,270.996,0.000,1713320980.527
1256,999.512,999.512,-1000.000,-1000.000,0.000,1713320980.531
1257,194.336,215.332,-771.973,-691.895,0.000,1713320980.535
1258,-1000.000,-1000.000,658.203,933.594,0.000,1713320980.539
1259,-271.484,-274.414,533.203,705.566,0.000,1713320980.543
1260,999.512,999.512,-918.457,-855.469,0.000,1713320980.547
1261,471.680,589.844,-1000.000,-1000.000,0.000,1713320980.551
1262,-1000.000,-1000.000,243.652,187.988,0.000,1713320980.555
1263,-424.805,-624.023,844.727,999.512,0.000,1713320980.559
1264,999.512,919.922,-491.699,-152.832,0.000,1713320980.563
1265,955.078,999.512,-1000.000,-1000.000,0.000,1713320980.566
1266,-549.316,-272.949,-243.164,-221.680,0.000,1713320980.570
1267,-964.844,-1000.000,972.168,999.512,0.000,1713320980.574
1268,559.082,222.168,-80.078,238.770,0.000,1713320980.578
1269,999.512,999.512,-1000.000,-1000.000,0.000,1713320980.582
1270,93.262,187.500,-509.766,-364.258,0.000,1713320980.586
1271,-1000.000,-1000.000,918.457,999.512,0.000,1713320980.590
