,TP9,AF7,AF8,TP10,Right AUX,timestamps
0,0.000,0.000,0.000,0.000,0.000,1711986887.546
1,0.000,0.000,0.000,0.000,0.000,1711986887.550
2,-35.156,-32.715,-40.527,-38.086,0.000,1711986887.554
3,84.961,74.219,107.422,95.703,0.000,1711986887.558
4,-357.422,-341.309,-411.621,-376.465,0.000,1711986887.561
5,-1000.000,-1000.000,-974.121,-1000.000,0.000,1711986887.565
6,-27.344,-190.430,316.406,121.094,0.000,1711986887.569
7,999.512,999.512,999.512,999.512,0.000,1711986887.573
8,158.203,237.793,-158.691,48.340,0.000,1711986887.577
9,-1000.000,-1000.000,-1000.000,-1000.000,0.000,1711986887.581
10,-259.277,-333.008,-27.832,-235.840,0.000,1711986887.585
11,999.512,999.512,999.512,999.512,0.000,1711986887.588
12,241.211,376.465,282.715,234.375,0.000,1711986887.591
13,-1000.000,-1000.000,-1000.000,-1000.000,0.000,1711986887.595
14,-490.723,-821.289,-426.758,-357.910,0.000,1711986887.599
15,999.512,790.039,999.512,999.512,0.000,1711986887.603
16,628.418,925.781,508.789,558.594,0.000,1711986887.606
17,-1000.000,-753.906,-971.191,-1000.000,0.000,1711986887.610
18,-851.074,100.586,-763.184,-724.609,0.000,1711986887.614
19,733.398,851.074,664.062,859.375,0.000,1711986887.618
20,999.512,-773.926,971.191,999.512,0.000,1711986887.621
21,-419.434,-1000.000,-347.656,-428.223,0.000,1711986887.625
22,-1000.000,13.184,-1000.000,-1000.000,0.000,1711986887.629
23,6.348,999.512,106.445,106.934,0.000,1711986887.633
24,999.512,76.172,999.512,999.512,0.000,1711986887.634
25,88.867,-1000.000,29.785,99.609,0.000,1711986887.637
26,-1000.000,-194.336,-1000.000,-1000.000,0.000,1711986887.641
27,-248.047,999.512,-303.223,-251.953,0.000,1711986887.645
28,999.512,268.066,999.512,999.512,0.000,1711986887.648
29,242.188,-1000.000,453.613,238.770,0.000,1711986887.652
30,-1000.000,-216.797,-1000.000,-1000.000,0.000,1711986887.656
31,-568.359,918.457,-561.035,-439.941,0.000,1711986887.659
32,999.512,46.387,941.895,999.512,0.000,1711986887.663
33,605.469,-1000.000,697.754,586.914,0.000,1711986887.666
34,-964.844,-902.832,-739.746,-998.535,0.000,1711986887.670
35,-1000.000,495.117,-962.402,-929.688,0.000,1711986887.674
36,362.305,985.352,403.809,567.871,0.000,1711986887.675
37,999.512,-453.613,999.512,999.512,0.000,1711986887.679
38,-192.871,-1000.000,-278.320,-242.676,0.000,1711986887.682
39,-1000.000,288.086,-1000.000,-1000.000,0.000,1711986887.686
40,-169.922,999.512,-51.758,-46.387,0.000,1711986887.689
41,999.512,-107.422,999.512,999.512,0.000,1711986887.693
42,228.516,-906.250,157.227,210.449,0.000,1711986887.697
43,-1000.000,-812.500,-1000.000,-1000.000,0.000,1711986887.700
44,-306.641,-220.703,-350.586,-270.996,0.000,1711986887.704
45,999.512,816.895,999.512,999.512,0.000,1711986887.707
46,430.664,877.441,364.746,367.188,0.000,1711986887.711
47,-1000.000,-370.117,-1000.000,-1000.000,0.000,1711986887.714
48,-700.195,-1000.000,-548.828,-567.871,0.000,1711986887.714
49,887.207,251.953,942.871,999.512,0.000,1711986887.717
50,943.848,999.512,682.129,823.730,0.000,1711986887.721
51,-548.340,-129.883,-786.133,-715.820,0.000,1711986887.724
52,-1000.000,-1000.000,-912.598,-1000.000,0.000,1711986887.728
53,149.414,-99.121,476.074,328.125,0.000,1711986887.731
54,999.512,999.512,999.512,999.512,0.000,1711986887.735
55,62.500,204.102,-227.539,-32.715,0.000,1711986887.738
56,-1000.000,-1000.000,-1000.000,-1000.000,0.000,1711986887.742
57,-248.047,-422.363,-73.242,-211.914,0.000,1711986887.745
58,999.512,999.512,999.512,999.512,0.000,1711986887.749
59,236.328,440.430,118.164,229.980,0.000,1711986887.752
60,-1000.000,-1000.000,-1000.000,-1000.000,0.000,1711986887.753
61,-361.816,-554.199,-343.262,-290.527,0.000,1711986887.756
62,999.512,880.371,999.512,999.512,0.000,1711986887.760
63,523.438,406.250,464.355,443.359,0.000,1711986887.763
64,-1000.000,-812.500,-1000.000,-1000.000,0.000,1711986887.766
65,-801.270,-993.652,-620.117,-692.871,0.000,1711986887.770
66,780.762,531.250,841.309,903.809,0.000,1711986887.773
67,999.512,229.492,888.672,915.039,0.000,1711986887.777
68,-481.934,-1000.000,-449.219,-596.191,0.000,1711986887.780
69,-1000.000,-237.305,-1000.000,-1000.000,0.000,1711986887.784
70,146.484,999.512,131.836,204.590,0.000,1711986887.787
71,999.512,168.945,999.512,999.512,0.000,1711986887.791
72,89.844,-1000.000,-42.480,18.066,0.000,1711986887.794
73,-1000.000,-201.172,-1000.000,-1000.000,0.000,1711986887.797
74,-251.465,999.512,-233.887,-232.910,0.000,1711986887.801
75,999.512,620.605,999.512,999.512,0.000,1711986887.804
76,232.910,-901.855,435.059,231.934,0.000,1711986887.808
77,-1000.000,-407.227,-1000.000,-1000.000,0.000,1711986887.811
78,-319.336,999.512,-453.125,-302.734,0.000,1711986887.814
79,999.512,287.109,999.512,999.512,0.000,1711986887.818
80,556.641,-1000.000,599.609,519.043,0.000,1711986887.821
81,-1000.000,-837.402,-845.703,-1000.000,0.000,1711986887.825
82,-889.648,583.496,-896.484,-783.203,0.000,1711986887.828
83,638.672,999.512,494.141,771.484,0.000,1711986887.832
84,999.512,-347.168,980.957,999.512,0.000,1711986887.835
85,-296.875,-1000.000,-350.586,-362.793,0.000,1711986887.839
86,-1000.000,58.105,-1000.000,-1000.000,0.000,1711986887.842
87,36.133,999.512,101.562,109.863,0.000,1711986887.846
88,999.512,30.762,999.512,999.512,0.000,1711986887.849
89,115.234,-1000.000,-2.441,69.336,0.000,1711986887.853
90,-1000.000,40.527,-1000.000,-1000.000,0.000,1711986887.856
91,-268.555,999.512,-245.117,-261.230,0.000,1711986887.860
92,999.512,102.051,999.512,999.512,0.000,1711986887.863
93,290.527,-1000.000,393.066,257.324,0.000,1711986887.866
94,-1000.000,-410.645,-1000.000,-1000.000,0.000,1711986887.870
95,-494.629,999.512,-641.113,-435.059,0.000,1711986887.873
96,999.512,548.340,840.332,999.512,0.000,1711986887.878
97,703.613,-1000.000,713.379,633.789,0.000,1711986887.881
98,-865.723,-794.922,-743.652,-943.359,0.000,1711986887.884
99,-1000.000,748.535,-970.703,-961.914,0.000,1711986887.888
100,407.227,986.816,371.094,515.137,0.000,1711986887.891
101,999.512,-452.148,999.512,999.512,0.000,1711986887.895
102,-41.504,62.012,-205.566,-148.438,0.000,1711986887.898
103,-1000.000,999.512,-1000.000,-1000.000,0.000,1711986887.902
104,-203.613,5.859,94.727,-76.172,0.000,1711986887.905
105,999.512,-962.402,999.512,999.512,0.000,1711986887.909
106,229.004,-1000.000,155.762,208.008,0.000,1711986887.912
107,-1000.000,-238.770,-1000.000,-1000.000,0.000,1711986887.915
108,-297.363,999.512,-457.031,-271.484,0.000,1711986887.920
109,999.512,264.160,986.816,999.512,0.000,1711986887.923
110,415.527,-1000.000,606.445,401.855,0.000,1711986887.927
111,-1000.000,-614.746,-823.730,-1000.000,0.000,1711986887.930
112,-830.078,775.391,-878.418,-671.875,0.000,1711986887.934
113,658.203,972.168,492.676,862.305,0.000,1711986887.937
114,999.512,999.512,934.082,999.512,0.000,1711986887.941
115,-248.047,62.012,-428.223,-393.555,0.000,1711986887.944
116,-1000.000,-1000.000,-1000.000,-1000.000,0.000,1711986887.948
117,-55.664,-239.258,319.336,146.484,0.000,1711986887.951
118,999.512,999.512,999.512,999.512,0.000,1711986887.955
119,199.707,240.234,-15.625,98.145,0.000,1711986887.958
120,-1000.000,-1000.000,-1000.000,-1000.000,0.000,1711986887.963
121,-262.207,-433.105,-121.094,-247.070,0.000,1711986887.966
122,999.512,999.512,999.512,999.512,0.000,1711986887.970
123,235.840,488.770,236.816,231.934,0.000,1711986887.973
124,-1000.000,-1000.000,-1000.000,-1000.000,0.000,1711986887.977
125,-416.504,-578.125,-343.750,-316.895,0.000,1711986887.980
126,999.512,999.512,999.512,999.512,0.000,1711986887.984
127,653.809,842.285,582.520,546.387,0.000,1711986887.987
128,-937.012,-619.141,-860.840,-1000.000,0.000,1711986887.991
129,-946.289,-1000.000,-722.168,-794.434,0.000,1711986887.994
130,571.777,73.730,760.742,774.414,0.000,1711986887.998
131,999.512,999.512,826.172,999.512,0.000,1711986888.001
132,-254.395,-164.062,-574.219,-406.250,0.000,1711986888.006
133,-1000.000,-269.531,-1000.000,-1000.000,0.000,1711986888.010
134,43.945,999.512,143.555,145.996,0.000,1711986888.013
135,999.512,-255.371,999.512,999.512,0.000,1711986888.017
136,165.527,-1000.000,32.715,98.633,0.000,1711986888.020
137,-1000.000,-150.879,-1000.000,-1000.000,0.000,1711986888.024
138,-260.254,999.512,-271.973,-252.930,0.000,1711986888.027
139,999.512,188.965,999.512,999.512,0.000,1711986888.031
140,238.770,-1000.000,323.242,237.793,0.000,1711986888.034
141,-1000.000,-558.594,-1000.000,-1000.000,0.000,1711986888.038
142,-476.562,999.512,-679.199,-408.203,0.000,1711986888.041
143,999.512,536.621,797.852,999.512,0.000,1711986888.044
144,611.328,-1000.000,632.324,566.895,0.000,1711986888.050
145,-969.238,-891.113,-842.285,-1000.000,0.000,1711986888.053
146,-991.699,462.402,-996.582,-892.090,0.000,1711986888.057
147,487.793,999.512,357.422,640.625,0.000,1711986888.060
148,999.512,-167.969,962.402,999.512,0.000,1711986888.064
149,-261.230,-965.332,-403.320,-349.121,0.000,1711986888.067
150,-1000.000,716.797,-1000.000,-1000.000,0.000,1711986888.071
151,-6.836,732.910,99.121,43.945,0.000,1711986888.074
152,999.512,-762.207,999.512,999.512,0.000,1711986888.078
153,203.125,-1000.000,8.789,150.391,0.000,1711986888.081
154,-1000.000,-442.383,-1000.000,-1000.000,0.000,1711986888.085
155,-269.531,999.512,-488.770,-259.766,0.000,1711986888.088
156,999.512,321.777,990.723,999.512,0.000,1711986888.093
157,318.359,-1000.000,394.043,270.020,0.000,1711986888.097
158,-1000.000,-532.715,-1000.000,-1000.000,0.000,1711986888.100
159,-546.387,999.512,-733.887,-510.254,0.000,1711986888.104
160,999.512,351.074,727.539,999.512,0.000,1711986888.107
161,844.238,-1000.000,681.641,719.238,0.000,1711986888.111
162,-665.527,26.367,-809.570,-851.562,0.000,1711986888.114
163,-1000.000,774.902,-993.164,-1000.000,0.000,1711986888.118
164,248.047,-587.402,411.621,422.852,0.000,1711986888.121
165,999.512,-1000.000,999.512,999.512,0.000,1711986888.125
166,-51.758,-916.016,-334.473,-135.254,0.000,1711986888.128
167,-1000.000,220.703,-1000.000,-1000.000,0.000,1711986888.132
168,-121.094,989.746,-66.406,-68.848,0.000,1711986888.139
169,999.512,-425.781,999.512,999.512,0.000,1711986888.142
170,217.773,-1000.000,134.277,211.914,0.000,1711986888.146
171,-1000.000,-270.020,-1000.000,-1000.000,0.000,1711986888.149
172,-299.316,999.512,-608.398,-273.926,0.000,1711986888.153
173,999.512,678.223,837.891,999.512,0.000,1711986888.156
174,524.414,-509.277,548.828,451.660,0.000,1711986888.160
175,-1000.000,-1000.000,-937.012,-1000.000,0.000,1711986888.164
176,-668.457,-2.441,-852.539,-622.559,0.000,1711986888.167
177,948.730,541.016,573.730,995.605,0.000,1711986888.171
178,925.781,-965.820,761.230,827.148,0.000,1711986888.174
179,-545.898,-1000.000,-662.598,-686.523,0.000,1711986888.178
180,-1000.000,209.473,-1000.000,-1000.000,0.000,1711986888.184
181,116.211,915.527,132.324,194.824,0.000,1711986888.188
182,999.512,-22.461,999.512,999.512,0.000,1711986888.191
183,75.684,-1000.000,-98.633,-16.602,0.000,1711986888.195
184,-1000.000,-174.316,-1000.000,-1000.000,0.000,1711986888.199
185,-243.164,999.512,-198.730,-218.262,0.000,1711986888.202
186,999.512,231.445,999.512,999.512,0.000,1711986888.206
187,235.352,-1000.000,265.137,232.910,0.000,1711986888.209
188,-1000.000,-354.492,-1000.000,-1000.000,0.000,1711986888.213
189,-362.793,999.512,-580.078,-333.008,0.000,1711986888.216
190,999.512,863.281,899.414,999.512,0.000,1711986888.220
191,570.801,-446.289,634.766,489.258,0.000,1711986888.223
192,-1000.000,-1000.000,-834.961,-1000.000,0.000,1711986888.230
193,-790.039,70.801,-931.152,-740.234,0.000,1711986888.233
194,760.742,999.512,453.613,822.754,0.000,1711986888.237
195,999.512,-188.477,937.988,999.512,0.000,1711986888.241
196,-292.969,-1000.000,-417.969,-417.969,0.000,1711986888.244
197,-1000.000,-57.129,-1000.000,-1000.000,0.000,1711986888.248
198,64.941,999.512,74.219,126.465,0.000,1711986888.251
199,999.512,-71.289,999.512,999.512,0.000,1711986888.255
200,161.621,-1000.000,-53.711,106.445,0.000,1711986888.258
201,-1000.000,-1000.000,-1000.000,-1000.000,0.000,1711986888.262
202,-260.254,-642.578,-457.031,-253.418,0.000,1711986888.266
203,999.512,218.262,947.754,999.512,0.000,1711986888.269
204,240.234,-495.117,216.309,238.281,0.000,1711986888.275
205,-1000.000,-552.246,-1000.000,-1000.000,0.000,1711986888.279
206,-528.809,982.422,-717.773,-432.129,0.000,1711986888.283
207,999.512,374.512,708.496,999.512,0.000,1711986888.286
208,618.164,-1000.000,599.121,579.590,0.000,1711986888.290
209,-962.402,-519.043,-894.043,-1000.000,0.000,1711986888.293
210,-1000.000,876.953,-966.309,-925.293,0.000,1711986888.297
211,441.895,339.844,431.641,599.609,0.000,1711986888.300
212,999.512,-846.680,906.250,999.512,0.000,1711986888.304
213,-270.996,-1000.000,-457.031,-338.867,0.000,1711986888.308
214,-1000.000,0.977,-1000.000,-1000.000,0.000,1711986888.311
215,-131.836,999.512,-114.258,-53.223,0.000,1711986888.315
216,999.512,-92.285,999.512,999.512,0.000,1711986888.321
217,221.680,-1000.000,75.195,190.918,0.000,1711986888.325
218,-1000.000,-186.523,-1000.000,-1000.000,0.000,1711986888.328
219,-269.531,999.512,-374.512,-264.648,0.000,1711986888.332
220,999.512,194.336,999.512,999.512,0.000,1711986888.335
221,367.188,-1000.000,407.227,301.758,0.000,1711986888.339
222,-1000.000,-112.793,-1000.000,-1000.000,0.000,1711986888.342
223,-639.160,778.809,-662.109,-529.297,0.000,1711986888.346
224,999.512,-454.102,857.422,999.512,0.000,1711986888.350
225,712.891,-1000.000,599.609,686.523,0.000,1711986888.353
226,-823.730,-768.555,-836.914,-867.676,0.000,1711986888.357
227,-1000.000,612.793,-1000.000,-1000.000,0.000,1711986888.360
228,166.016,663.086,166.016,345.215,0.000,1711986888.367
229,999.512,-723.145,952.148,999.512,0.000,1711986888.370
230,-138.672,-1000.000,-348.145,-151.855,0.000,1711986888.374
231,-1000.000,75.684,-1000.000,-1000.000,0.000,1711986888.377
232,-226.074,999.512,-276.855,-171.387,0.000,1711986888.381
233,999.512,-264.648,999.512,999.512,0.000,1711986888.385
234,242.188,-938.965,163.574,228.516,0.000,1711986888.388
235,-1000.000,531.738,-1000.000,-1000.000,0.000,1711986888.392
236,-432.617,219.238,-437.500,-311.035,0.000,1711986888.395
237,999.512,-1000.000,999.512,999.512,0.000,1711986888.399
238,430.176,-1000.000,358.887,375.488,0.000,1711986888.403
239,-1000.000,-295.410,-1000.000,-1000.000,0.000,1711986888.406
240,-776.855,898.926,-826.172,-674.316,0.000,1711986888.412
241,792.480,449.707,563.477,910.156,0.000,1711986888.416
242,966.309,-910.156,818.359,895.020,0.000,1711986888.419
243,-528.320,-756.836,-610.352,-624.512,0.000,1711986888.423
244,-1000.000,593.262,-1000.000,-1000.000,0.000,1711986888.427
245,65.430,696.777,172.363,189.453,0.000,1711986888.430
246,999.512,999.512,999.512,999.512,0.000,1711986888.434
247,190.918,221.191,-83.984,114.258,0.000,1711986888.437
248,-1000.000,-1000.000,-1000.000,-1000.000,0.000,1711986888.441
249,-264.648,-848.633,-120.605,-249.512,0.000,1711986888.445
250,999.512,-798.340,999.512,999.512,0.000,1711986888.448
251,234.863,-1000.000,177.734,231.934,0.000,1711986888.452
252,-1000.000,-220.215,-1000.000,-1000.000,0.000,1711986888.458
253,-392.090,999.512,-588.379,-321.289,0.000,1711986888.461
254,999.512,306.641,893.555,999.512,0.000,1711986888.465
255,574.219,-1000.000,563.965,536.133,0.000,1711986888.469
256,-1000.000,-689.941,-948.730,-1000.000,0.000,1711986888.472
257,-815.918,895.996,-851.562,-727.051,0.000,1711986888.476
258,765.137,569.824,606.934,852.051,0.000,1711986888.479
259,999.512,-902.832,880.371,999.512,0.000,1711986888.483
260,-402.832,-1000.000,-497.559,-415.039,0.000,1711986888.487
261,-1000.000,-56.152,-1000.000,-1000.000,0.000,1711986888.490
262,-30.273,999.512,-16.113,67.383,0.000,1711986888.494
263,999.512,-146.973,999.512,999.512,0.000,1711986888.498
264,104.980,-1000.000,-46.875,97.656,0.000,1711986888.505
265,-1000.000,-196.289,-1000.000,-1000.000,0.000,1711986888.508
266,-249.023,999.512,-328.613,-250.977,0.000,1711986888.512
267,999.512,230.469,999.512,999.512,0.000,1711986888.516
268,239.746,-1000.000,360.840,237.793,0.000,1711986888.519
269,-1000.000,-232.910,-1000.000,-1000.000,0.000,1711986888.523
270,-449.219,999.512,-516.602,-409.180,0.000,1711986888.526
271,999.512,234.375,990.234,999.512,0.000,1711986888.530
272,652.832,-1000.000,642.090,598.145,0.000,1711986888.534
273,-933.594,-827.637,-824.707,-991.211,0.000,1711986888.537
274,-973.145,636.230,-946.289,-910.645,0.000,1711986888.541
275,489.746,929.688,426.270,583.496,0.000,1711986888.545
276,999.512,-337.891,999.512,999.512,0.000,1711986888.551
277,-72.754,-972.656,-252.441,-174.805,0.000,1711986888.555
278,-1000.000,-94.727,-1000.000,-1000.000,0.000,1711986888.559
279,-101.562,999.512,-40.039,-32.227,0.000,1711986888.562
280,999.512,25.391,999.512,999.512,0.000,1711986888.566
281,213.867,-1000.000,151.855,208.008,0.000,1711986888.570
282,-1000.000,71.777,-1000.000,-1000.000,0.000,1711986888.573
283,-272.461,999.512,-312.988,-270.996,0.000,1711986888.577
284,999.512,177.734,999.512,999.512,0.000,1711986888.580
285,416.016,-1000.000,471.191,364.258,0.000,1711986888.584
286,-1000.000,-339.355,-1000.000,-1000.000,0.000,1711986888.588
287,-583.008,999.512,-683.594,-525.391,0.000,1711986888.591
288,999.512,580.078,798.828,999.512,0.000,1711986888.598
289,868.652,-951.172,814.941,800.293,0.000,1711986888.602
290,-634.766,-616.699,-625.000,-735.352,0.000,1711986888.605
291,-1000.000,863.770,-1000.000,-1000.000,0.000,1711986888.609
292,230.469,790.527,341.309,352.051,0.000,1711986888.612
293,999.512,-725.586,999.512,999.512,0.000,1711986888.616
294,19.043,-318.359,-151.855,-76.172,0.000,1711986888.620
295,-1000.000,999.512,-1000.000,-1000.000,0.000,1711986888.623
296,-243.652,218.262,-27.832,-191.406,0.000,1711986888.627
297,999.512,-984.863,999.512,999.512,0.000,1711986888.631
298,235.840,-1000.000,199.707,229.004,0.000,1711986888.634
299,-1000.000,-157.227,-1000.000,-1000.000,0.000,1711986888.638
300,-339.844,999.512,-473.633,-300.293,0.000,1711986888.644
301,999.512,359.375,999.512,999.512,0.000,1711986888.648
302,501.953,-1000.000,572.754,431.641,0.000,1711986888.652
303,-1000.000,-335.449,-933.105,-1000.000,0.000,1711986888.655
304,-728.027,995.117,-741.699,-653.320,0.000,1711986888.659
305,788.574,890.625,700.195,882.812,0.000,1711986888.663
306,999.512,803.711,965.820,999.512,0.000,1711986888.666
307,-204.102,24.414,-432.617,-375.977,0.000,1711986888.670
308,-1000.000,-1000.000,-1000.000,-1000.000,0.000,1711986888.674
309,10.742,-248.047,352.539,136.719,0.000,1711986888.677
310,999.512,999.512,999.512,999.512,0.000,1711986888.681
311,203.125,365.234,-70.801,138.672,0.000,1711986888.685
312,-1000.000,-1000.000,-1000.000,-1000.000,0.000,1711986888.691
313,-268.066,-312.988,-113.281,-258.301,0.000,1711986888.694
314,999.512,881.836,999.512,999.512,0.000,1711986888.698
315,289.551,31.738,266.602,234.375,0.000,1711986888.702
316,-1000.000,-145.020,-1000.000,-1000.000,0.000,1711986888.705
317,-433.594,844.727,-506.348,-362.793,0.000,1711986888.709
318,999.512,988.770,952.148,999.512,0.000,1711986888.713
319,590.332,-296.387,777.344,559.082,0.000,1711986888.716
320,-945.312,-1000.000,-692.383,-1000.000,0.000,1711986888.720
321,-1000.000,-1000.000,-836.914,-920.898,0.000,1711986888.724
322,370.605,-34.668,674.805,599.121,0.000,1711986888.727
323,999.512,999.512,890.625,999.512,0.000,1711986888.731
324,-206.055,-149.414,-497.070,-323.730,0.000,1711986888.737
325,-1000.000,-455.566,-1000.000,-1000.000,0.000,1711986888.741
326,-112.793,999.512,-9.766,-7.812,0.000,1711986888.745
327,999.512,270.508,999.512,999.512,0.000,1711986888.748
328,193.848,-1000.000,156.250,175.781,0.000,1711986888.752
329,-1000.000,-221.191,-1000.000,-1000.000,0.000,1711986888.756
330,-261.719,999.512,-223.145,-262.207,0.000,1711986888.759
331,999.512,204.102,999.512,999.512,0.000,1711986888.763
332,282.715,-1000.000,465.820,277.344,0.000,1711986888.767
333,-1000.000,-442.871,-1000.000,-1000.000,0.000,1711986888.770
334,-521.484,999.512,-584.473,-443.359,0.000,1711986888.774
335,999.512,443.848,931.152,999.512,0.000,1711986888.778
336,736.816,-1000.000,736.328,689.941,0.000,1711986888.783
337,-841.797,-713.867,-714.844,-896.484,0.000,1711986888.787
338,-1000.000,801.270,-964.355,-956.543,0.000,1711986888.791
339,430.664,979.004,410.156,545.898,0.000,1711986888.794
340,999.512,-609.375,999.512,999.512,0.000,1711986888.798
341,-105.957,-751.465,-248.047,-168.457,0.000,1711986888.802
342,-1000.000,827.148,-1000.000,-1000.000,0.000,1711986888.806
343,-122.559,998.535,53.711,-53.711,0.000,1711986888.809
344,999.512,-305.664,999.512,999.512,0.000,1711986888.813
345,217.773,-1000.000,178.711,210.449,0.000,1711986888.817
346,-1000.000,-169.922,-1000.000,-1000.000,0.000,1711986888.820
347,-270.996,999.512,-346.680,-270.508,0.000,1711986888.824
348,999.512,499.512,999.512,999.512,0.000,1711986888.830
349,385.254,-1000.000,543.457,354.980,0.000,1711986888.833
350,-1000.000,-485.352,-948.730,-1000.000,0.000,1711986888.837
351,-665.039,999.512,-682.617,-585.449,0.000,1711986888.841
352,874.023,424.316,807.617,965.820,0.000,1711986888.844
353,999.512,-552.734,890.137,925.293,0.000,1711986888.848
354,-397.461,839.844,-592.773,-576.660,0.000,1711986888.852
355,-1000.000,821.289,-947.266,-1000.000,0.000,1711986888.855
356,132.324,-786.133,522.949,294.922,0.000,1711986888.859
357,999.512,-1000.000,999.512,999.512,0.000,1711986888.863
358,94.727,161.621,-182.617,6.348,0.000,1711986888.866
359,-1000.000,999.512,-1000.000,-1000.000,0.000,1711986888.870
360,-251.953,354.492,-51.758,-190.430,0.000,1711986888.877
361,999.512,-1000.000,999.512,999.512,0.000,1711986888.880
362,231.934,-543.457,228.027,224.121,0.000,1711986888.884
363,-1000.000,986.328,-1000.000,-1000.000,0.000,1711986888.888
364,-298.340,557.129,-342.773,-272.949,0.000,1711986888.892
365,999.512,-988.281,999.512,999.512,0.000,1711986888.895
366,674.316,-369.141,492.188,554.199,0.000,1711986888.899
367,-900.391,999.512,-1000.000,-1000.000,0.000,1711986888.903
368,-916.992,348.633,-687.012,-769.531,0.000,1711986888.906
369,660.156,-1000.000,835.938,844.727,0.000,1711986888.910
370,999.512,-941.406,833.984,960.938,0.000,1711986888.914
371,-357.910,-90.332,-600.586,-519.531,0.000,1711986888.917
372,-1000.000,741.211,-1000.000,-1000.000,0.000,1711986888.924
373,28.320,788.574,178.223,104.004,0.000,1711986888.927
374,999.512,-146.973,999.512,999.512,0.000,1711986888.931
375,136.230,-1000.000,-18.555,48.828,0.000,1711986888.935
376,-1000.000,-32.715,-1000.000,-1000.000,0.000,1711986888.939
377,-255.371,999.512,-166.504,-245.117,0.000,1711986888.942
378,999.512,221.680,999.512,999.512,0.000,1711986888.946
379,239.258,-1000.000,350.098,239.258,0.000,1711986888.950
380,-1000.000,-624.023,-1000.000,-1000.000,0.000,1711986888.953
381,-457.031,880.859,-610.840,-423.828,0.000,1711986888.957
382,999.512,566.895,883.789,999.512,0.000,1711986888.961
383,706.543,-883.301,683.594,590.820,0.000,1711986888.965
384,-906.250,-589.355,-807.129,-1000.000,0.000,1711986888.973
385,-915.527,859.863,-896.973,-841.797,0.000,1711986888.976
386,607.422,671.387,527.344,688.965,0.000,1711986888.980
387,999.512,-757.812,991.699,999.512,0.000,1711986888.984
388,-175.781,-1000.000,-365.723,-271.484,0.000,1711986888.988
389,-1000.000,50.781,-1000.000,-1000.000,0.000,1711986888.991
390,52.734,999.512,93.262,71.777,0.000,1711986888.995
391,999.512,66.406,999.512,999.512,0.000,1711986888.999
392,198.242,-1000.000,118.164,184.570,0.000,1711986889.002
393,-1000.000,-544.434,-1000.000,-1000.000,0.000,1711986889.006
394,-274.414,995.117,-427.734,-267.090,0.000,1711986889.010
395,999.512,267.578,999.512,999.512,0.000,1711986889.014
396,396.484,-1000.000,383.789,295.898,0.000,1711986889.019
397,-1000.000,-360.352,-1000.000,-1000.000,0.000,1711986889.023
398,-506.348,999.512,-678.711,-491.699,0.000,1711986889.027
399,999.512,825.684,797.363,999.512,0.000,1711986889.031
400,819.336,-800.781,770.020,704.590,0.000,1711986889.034
401,-708.008,-519.043,-708.984,-863.770,0.000,1711986889.038
402,-1000.000,999.512,-976.562,-1000.000,0.000,1711986889.042
403,363.770,556.152,412.598,439.453,0.000,1711986889.046
404,999.512,-861.328,999.512,999.512,0.000,1711986889.049
405,-75.195,-840.332,-257.324,-178.223,0.000,1711986889.053
406,-1000.000,618.652,-1000.000,-1000.000,0.000,1711986889.057
407,-194.824,999.512,-84.473,-144.531,0.000,1711986889.060
408,999.512,20.508,999.512,999.512,0.000,1711986889.066
409,227.051,-1000.000,184.570,222.656,0.000,1711986889.070
410,-1000.000,-196.777,-1000.000,-1000.000,0.000,1711986889.074
411,-272.949,999.512,-436.523,-271.973,0.000,1711986889.077
412,999.512,237.305,999.512,999.512,0.000,1711986889.081
413,568.848,-409.180,531.250,461.426,0.000,1711986889.085
414,-1000.000,999.512,-1000.000,-1000.000,0.000,1711986889.088
415,-753.906,517.090,-595.703,-619.141,0.000,1711986889.092
416,848.145,-1000.000,947.266,970.703,0.000,1711986889.096
417,999.512,-798.828,773.438,912.109,0.000,1711986889.100
418,-453.613,576.660,-687.500,-581.055,0.000,1711986889.103
419,-1000.000,952.148,-1000.000,-1000.000,0.000,1711986889.107
420,119.629,513.672,299.316,239.746,0.000,1711986889.113
421,999.512,-547.852,999.512,999.512,0.000,1711986889.116
422,62.500,-1000.000,-83.496,9.766,0.000,1711986889.120
423,-1000.000,208.984,-1000.000,-1000.000,0.000,1711986889.124
424,-247.559,999.512,-172.852,-226.074,0.000,1711986889.127
425,999.512,25.391,999.512,999.512,0.000,1711986889.131
426,239.258,-1000.000,326.172,233.398,0.000,1711986889.135
427,-1000.000,-437.012,-1000.000,-1000.000,0.000,1711986889.139
428,-430.664,999.512,-518.066,-331.543,0.000,1711986889.142
429,999.512,333.008,978.516,999.512,0.000,1711986889.146
430,524.902,-1000.000,630.859,490.234,0.000,1711986889.150
431,-1000.000,-327.148,-867.188,-1000.000,0.000,1711986889.154
432,-898.438,975.586,-806.641,-779.297,0.000,1711986889.159
433,584.473,569.336,638.184,758.789,0.000,1711986889.163
434,999.512,-425.781,999.512,999.512,0.000,1711986889.166
435,-208.496,526.367,-393.066,-339.844,0.000,1711986889.170
436,-1000.000,955.078,-1000.000,-1000.000,0.000,1711986889.174
437,-62.988,-642.578,298.340,63.965,0.000,1711986889.178
438,999.512,-1000.000,999.512,999.512,0.000,1711986889.181
439,211.914,164.551,67.871,184.570,0.000,1711986889.185
440,-1000.000,999.512,-1000.000,-1000.000,0.000,1711986889.189
441,-269.531,-115.723,-155.273,-265.625,0.000,1711986889.193
442,999.512,-1000.000,999.512,999.512,0.000,1711986889.196
443,330.566,-203.613,279.785,274.902,0.000,1711986889.200
444,-1000.000,999.512,-1000.000,-1000.000,0.000,1711986889.205
445,-526.855,584.961,-449.219,-421.387,0.000,1711986889.209
446,999.512,-746.582,999.512,999.512,0.000,1711986889.213
447,750.977,-650.391,597.168,651.855,0.000,1711986889.217
448,-866.699,633.789,-924.316,-958.496,0.000,1711986889.220
449,-936.035,999.512,-790.039,-868.652,0.000,1711986889.224
450,596.191,574.219,645.996,676.758,0.000,1711986889.228
451,999.512,-705.078,999.512,999.512,0.000,1711986889.232
452,-174.805,-1000.000,-241.699,-252.441,0.000,1711986889.235
453,-1000.000,-198.242,-1000.000,-1000.000,0.000,1711986889.239
454,-99.121,999.512,-10.742,-51.758,0.000,1711986889.243
455,999.512,102.051,999.512,999.512,0.000,1711986889.247
456,215.820,-1000.000,152.832,192.871,0.000,1711986889.253
457,-1000.000,-136.230,-1000.000,-1000.000,0.000,1711986889.256
458,-270.508,999.512,-327.148,-264.160,0.000,1711986889.260
459,999.512,213.379,999.512,999.512,0.000,1711986889.264
460,360.840,-1000.000,458.984,293.457,0.000,1711986889.268
461,-1000.000,-220.703,-1000.000,-1000.000,0.000,1711986889.271
462,-546.875,999.512,-542.480,-509.766,0.000,1711986889.275
463,999.512,523.438,960.938,999.512,0.000,1711986889.279
464,788.574,-953.613,772.949,724.609,0.000,1711986889.283
465,-744.141,-925.293,-656.250,-840.820,0.000,1711986889.286
466,-1000.000,541.504,-1000.000,-1000.000,0.000,1711986889.290
467,286.621,986.816,337.402,397.461,0.000,1711986889.294
468,999.512,-450.684,999.512,999.512,0.000,1711986889.300
469,-40.039,-1000.000,-178.711,-96.191,0.000,1711986889.303
470,-1000.000,275.391,-1000.000,-1000.000,0.000,1711986889.307
471,-187.500,999.512,-67.871,-126.953,0.000,1711986889.311
472,999.512,-328.125,999.512,999.512,0.000,1711986889.315
473,228.027,-440.430,165.527,218.262,0.000,1711986889.318
474,-1000.000,999.512,-1000.000,-1000.000,0.000,1711986889.322
475,-321.289,322.266,-315.918,-273.438,0.000,1711986889.326
476,999.512,-1000.000,999.512,999.512,0.000,1711986889.330
477,572.266,-338.867,428.711,473.633,0.000,1711986889.333
478,-1000.000,999.512,-1000.000,-1000.000,0.000,1711986889.337
479,-833.984,432.617,-633.301,-701.660,0.000,1711986889.341
480,737.793,-1000.000,893.555,897.461,0.000,1711986889.347
481,999.512,-783.203,799.805,932.129,0.000,1711986889.350
482,-373.047,741.211,-671.387,-550.781,0.000,1711986889.354
483,-1000.000,999.512,-1000.000,-1000.000,0.000,1711986889.358
484,48.340,-579.590,355.469,171.387,0.000,1711986889.362
485,999.512,-936.523,999.512,999.512,0.000,1711986889.365
486,15.137,612.305,-262.695,-80.078,0.000,1711986889.369
487,-1000.000,999.512,-1000.000,-1000.000,0.000,1711986889.373
488,-266.113,-18.066,-195.801,-251.465,0.000,1711986889.377
489,999.512,-1000.000,999.512,999.512,0.000,1711986889.380
490,305.664,-354.980,287.598,243.652,0.000,1711986889.384
491,-1000.000,896.484,-1000.000,-1000.000,0.000,1711986889.388
492,-534.180,871.094,-547.852,-418.945,0.000,1711986889.393
493,999.512,-118.652,912.598,999.512,0.000,1711986889.397
494,706.055,-995.117,693.359,634.766,0.000,1711986889.401
495,-879.883,-360.352,-745.605,-975.586,0.000,1711986889.405
496,-1000.000,675.781,-922.363,-866.211,0.000,1711986889.408
497,447.754,916.504,450.195,657.715,0.000,1711986889.412
498,999.512,641.113,999.512,999.512,0.000,1711986889.416
499,-132.324,-381.836,-266.602,-192.871,0.000,1711986889.420
500,-1000.000,-1000.000,-1000.000,-1000.000,0.000,1711986889.423
501,-200.684,-302.734,120.605,-34.668,0.000,1711986889.427
502,999.512,999.512,999.512,999.512,0.000,1711986889.431
503,229.980,373.047,38.574,204.102,0.000,1711986889.435
504,-1000.000,-1000.000,-1000.000,-1000.000,0.000,1711986889.440
505,-281.250,-603.027,-264.648,-267.578,0.000,1711986889.444
506,999.512,960.938,999.512,999.512,0.000,1711986889.448
507,359.375,748.047,342.285,306.641,0.000,1711986889.451
508,-1000.000,-849.609,-1000.000,-1000.000,0.000,1711986889.455
509,-622.559,-896.484,-459.961,-498.047,0.000,1711986889.459
510,966.309,641.602,999.512,999.512,0.000,1711986889.463
511,868.164,999.512,718.750,784.180,0.000,1711986889.466
512,-640.137,-264.648,-723.633,-771.973,0.000,1711986889.470
513,-1000.000,-1000.000,-874.512,-1000.000,0.000,1711986889.474
514,186.523,-106.934,577.148,432.129,0.000,1711986889.478
515,999.512,999.512,996.094,999.512,0.000,1711986889.481
516,-49.316,131.836,-359.863,-122.559,0.000,1711986889.487
517,-1000.000,-1000.000,-1000.000,-1000.000,0.000,1711986889.491
518,-235.352,-259.766,30.273,-147.949,0.000,1711986889.494
519,999.512,999.512,999.512,999.512,0.000,1711986889.498
520,232.422,677.734,138.672,222.168,0.000,1711986889.502
521,-1000.000,493.652,-1000.000,-1000.000,0.000,1711986889.506
522,-269.531,999.512,-231.934,-270.020,0.000,1711986889.509
523,999.512,8.789,999.512,999.512,0.000,1711986889.513
524,420.898,-1000.000,501.953,389.648,0.000,1711986889.517
525,-1000.000,-494.629,-963.867,-1000.000,0.000,1711986889.521
526,-655.762,990.723,-707.031,-575.684,0.000,1711986889.524
527,958.984,494.629,783.203,999.512,0.000,1711986889.528
528,866.699,-1000.000,844.727,828.125,0.000,1711986889.534
529,-649.414,-521.973,-589.844,-709.473,0.000,1711986889.538
530,-1000.000,970.703,-1000.000,-1000.000,0.000,1711986889.542
531,191.406,834.473,332.031,330.078,0.000,1711986889.545
532,999.512,-732.910,999.512,999.512,0.000,1711986889.549
533,-33.203,-750.000,-139.648,-72.754,0.000,1711986889.553
534,-1000.000,801.758,-1000.000,-1000.000,0.000,1711986889.557
535,-237.305,999.512,-33.203,-191.895,0.000,1711986889.561
536,999.512,-207.520,999.512,999.512,0.000,1711986889.564
537,238.770,-1000.000,229.980,229.980,0.000,1711986889.568
538,-1000.000,-173.828,-1000.000,-1000.000,0.000,1711986889.572
539,-369.629,999.512,-434.570,-318.359,0.000,1711986889.576
540,999.512,322.266,999.512,999.512,0.000,1711986889.581
541,484.863,-1000.000,580.566,436.523,0.000,1711986889.584
542,-1000.000,-369.141,-916.504,-1000.000,0.000,1711986889.588
543,-849.609,999.512,-775.879,-732.910,0.000,1711986889.592
544,644.531,358.887,703.613,812.500,0.000,1711986889.596
545,999.512,-540.527,952.637,999.512,0.000,1711986889.600
546,-229.492,754.883,-485.352,-395.508,0.000,1711986889.603
547,-1000.000,906.250,-1000.000,-1000.000,0.000,1711986889.607
548,-42.969,-689.453,334.961,87.891,0.000,1711986889.611
549,999.512,-1000.000,999.512,999.512,0.000,1711986889.615
550,202.637,120.117,-23.438,123.535,0.000,1711986889.618
551,-1000.000,999.512,-1000.000,-1000.000,0.000,1711986889.622
552,-266.113,58.105,-147.461,-255.371,0.000,1711986889.628
553,999.512,-1000.000,999.512,999.512,0.000,1711986889.632
554,285.156,-177.734,254.395,236.816,0.000,1711986889.635
555,-1000.000,999.512,-1000.000,-1000.000,0.000,1711986889.639
556,-498.535,770.996,-459.961,-398.438,0.000,1711986889.643
557,999.512,19.043,998.535,999.512,0.000,1711986889.647
558,701.660,-810.059,721.191,615.723,0.000,1711986889.650
559,-866.699,-706.543,-720.215,-961.426,0.000,1711986889.654
560,-1000.000,325.195,-920.898,-939.453,0.000,1711986889.658
561,422.852,135.254,521.973,578.613,0.000,1711986889.662
562,999.512,-955.078,993.164,999.512,0.000,1711986889.666
563,-167.480,-87.402,-378.418,-283.203,0.000,1711986889.669
564,-1000.000,999.512,-1000.000,-1000.000,0.000,1711986889.675
565,-145.508,-164.062,83.008,-38.086,0.000,1711986889.679
566,999.512,-1000.000,999.512,999.512,0.000,1711986889.682
567,222.168,-17.090,51.270,189.453,0.000,1711986889.686
568,-1000.000,994.629,-1000.000,-1000.000,0.000,1711986889.690
569,-267.090,955.566,-241.699,-264.160,0.000,1711986889.694
570,999.512,371.582,999.512,999.512,0.000,1711986889.698
571,317.383,-1000.000,473.145,288.574,0.000,1711986889.701
572,-1000.000,-396.484,-1000.000,-1000.000,0.000,1711986889.705
573,-597.656,995.605,-619.629,-513.184,0.000,1711986889.709
574,987.305,257.812,890.625,999.512,0.000,1711986889.713
575,830.078,-1000.000,769.043,736.816,0.000,1711986889.716
576,-756.836,-625.977,-691.895,-860.352,0.000,1711986889.722
577,-1000.000,792.969,-945.801,-973.633,0.000,1711986889.726
578,430.664,890.137,440.430,514.648,0.000,1711986889.729
579,999.512,-494.629,999.512,999.512,0.000,1711986889.733
580,-19.043,-1000.000,-184.570,-104.004,0.000,1711986889.737
581,-1000.000,142.090,-1000.000,-1000.000,0.000,1711986889.741
582,-76.172,999.512,51.270,-41.504,0.000,1711986889.745
583,999.512,62.500,999.512,999.512,0.000,1711986889.748
584,209.473,-1000.000,234.863,207.520,0.000,1711986889.752
585,-1000.000,-270.508,-1000.000,-1000.000,0.000,1711986889.756
586,-274.414,999.512,-398.438,-272.461,0.000,1711986889.760
587,999.512,223.633,999.512,999.512,0.000,1711986889.763
588,454.590,-1000.000,478.027,389.160,0.000,1711986889.770
589,-1000.000,-334.473,-1000.000,-1000.000,0.000,1711986889.774
590,-700.195,999.512,-722.656,-614.258,0.000,1711986889.778
591,891.602,506.836,755.371,976.074,0.000,1711986889.782
592,951.660,-875.488,858.398,866.699,0.000,1711986889.785
593,-506.836,-84.473,-581.543,-636.230,0.000,1711986889.789
594,-1000.000,875.000,-1000.000,-1000.000,0.000,1711986889.793
595,54.199,-464.844,341.797,198.730,0.000,1711986889.797
596,999.512,-1000.000,999.512,999.512,0.000,1711986889.801
597,-18.555,-683.594,-219.238,-62.012,0.000,1711986889.804
598,-1000.000,471.191,-1000.000,-1000.000,0.000,1711986889.808
599,-236.328,999.512,-203.125,-219.238,0.000,1711986889.812
600,999.512,-52.246,999.512,999.512,0.000,1711986889.817
601,240.723,-1000.000,225.098,233.887,0.000,1711986889.821
602,-1000.000,-149.414,-1000.000,-1000.000,0.000,1711986889.825
603,-425.293,999.512,-500.000,-325.684,0.000,1711986889.828
604,999.512,110.840,999.512,999.512,0.000,1711986889.832
605,569.336,-614.746,554.688,518.555,0.000,1711986889.836
606,-1000.000,785.156,-1000.000,-1000.000,0.000,1711986889.840
607,-855.469,953.125,-679.688,-716.309,0.000,1711986889.844
608,718.262,-215.332,824.219,872.559,0.000,1711986889.847
609,999.512,-1000.000,879.395,978.516,0.000,1711986889.851
610,-433.105,-518.555,-498.047,-473.633,0.000,1711986889.855
611,-1000.000,807.129,-1000.000,-1000.000,0.000,1711986889.859
612,-47.852,348.633,121.582,71.289,0.000,1711986889.864
613,999.512,-1000.000,999.512,999.512,0.000,1711986889.867
614,172.852,-128.906,-63.965,99.121,0.000,1711986889.871
615,-1000.000,999.512,-1000.000,-1000.000,0.000,1711986889.875
616,-262.207,154.785,-189.941,-251.465,0.000,1711986889.879
617,999.512,-1000.000,999.512,999.512,0.000,1711986889.883
618,301.758,-200.195,284.180,245.117,0.000,1711986889.886
619,-1000.000,999.512,-1000.000,-1000.000,0.000,1711986889.890
620,-589.844,237.793,-423.340,-474.609,0.000,1711986889.894
621,999.512,-1000.000,999.512,999.512,0.000,1711986889.898
622,682.129,-632.324,590.820,591.797,0.000,1711986889.902
623,-900.391,814.453,-929.688,-1000.000,0.000,1711986889.905
624,-1000.000,732.422,-810.547,-929.199,0.000,1711986889.910
625,356.934,-853.516,679.199,558.594,0.000,1711986889.914
626,999.512,-970.703,999.512,999.512,0.000,1711986889.918
627,-90.332,593.262,-369.141,-212.891,0.000,1711986889.922
628,-1000.000,999.512,-1000.000,-1000.000,0.000,1711986889.925
629,-178.711,-453.125,112.793,-63.477,0.000,1711986889.929
630,999.512,-1000.000,999.512,999.512,0.000,1711986889.933
631,225.098,74.219,96.191,212.402,0.000,1711986889.937
632,-1000.000,999.512,-1000.000,-1000.000,0.000,1711986889.941
633,-270.508,84.473,-241.699,-268.555,0.000,1711986889.944
634,999.512,-1000.000,999.512,999.512,0.000,1711986889.948
635,415.039,-255.371,299.316,326.172,0.000,1711986889.952
636,-1000.000,999.512,-1000.000,-1000.000,0.000,1711986889.957
637,-649.902,352.539,-527.344,-563.477,0.000,1711986889.961
638,954.102,-1000.000,996.582,999.512,0.000,1711986889.964
639,891.602,-507.324,669.922,765.625,0.000,1711986889.968
640,-677.246,854.004,-866.699,-826.660,0.000,1711986889.972
641,-1000.000,999.512,-871.582,-1000.000,0.000,1711986889.976
642,419.434,405.273,564.941,485.352,0.000,1711986889.979
643,999.512,-945.801,999.512,999.512,0.000,1711986889.983
644,-100.098,-949.219,-185.547,-152.344,0.000,1711986889.987
645,-1000.000,317.871,-1000.000,-1000.000,0.000,1711986889.991
646,-231.445,999.512,-68.848,-182.617,0.000,1711986889.995
647,999.512,41.504,999.512,999.512,0.000,1711986889.998
648,236.328,-1000.000,224.609,227.539,0.000,1711986890.004
649,-1000.000,-197.266,-1000.000,-1000.000,0.000,1711986890.008
650,-323.242,999.512,-324.219,-269.043,0.000,1711986890.011
651,999.512,145.996,999.512,999.512,0.000,1711986890.015
652,404.297,-1000.000,524.414,386.719,0.000,1711986890.019
653,-1000.000,-129.883,-988.770,-1000.000,0.000,1711986890.023
654,-761.719,999.512,-603.027,-620.605,0.000,1711986890.027
655,884.766,348.145,908.203,988.281,0.000,1711986890.030
656,761.719,-1000.000,849.609,818.848,0.000,1711986890.034
657,-785.156,-835.449,-557.129,-704.102,0.000,1711986890.038
658,-1000.000,621.094,-1000.000,-1000.000,0.000,1711986890.042
659,66.895,668.457,292.969,205.566,0.000,1711986890.046
660,999.512,-774.902,999.512,999.512,0.000,1711986890.051
661,-51.758,-912.109,-126.465,-45.898,0.000,1711986890.055
662,-1000.000,495.117,-1000.000,-1000.000,0.000,1711986890.058
663,-232.910,999.512,-150.391,-228.027,0.000,1711986890.062
664,999.512,160.156,999.512,999.512,0.000,1711986890.066
665,243.652,-1000.000,356.445,237.305,0.000,1711986890.070
666,-1000.000,23.926,-1000.000,-1000.000,0.000,1711986890.074
667,-504.883,338.379,-379.883,-373.047,0.000,1711986890.077
668,999.512,-1000.000,999.512,999.512,0.000,1711986890.081
669,513.672,-962.402,517.090,474.609,0.000,1711986890.085
670,-1000.000,48.340,-983.887,-1000.000,0.000,1711986890.089
671,-931.641,913.086,-736.816,-822.754,0.000,1711986890.093
672,568.848,-111.328,752.930,733.887,0.000,1711986890.098
673,999.512,-1000.000,949.707,999.512,0.000,1711986890.102
674,-362.793,-40.527,-450.684,-465.332,0.000,1711986890.105
675,-1000.000,999.512,-1000.000,-1000.000,0.000,1711986890.109
676,-25.391,70.312,239.746,54.199,0.000,1711986890.113
677,999.512,-1000.000,999.512,999.512,0.000,1711986890.117
678,208.496,90.332,37.598,160.156,0.000,1711986890.121
679,-1000.000,999.512,-1000.000,-1000.000,0.000,1711986890.124
680,-265.137,57.129,-130.859,-259.277,0.000,1711986890.128
681,999.512,-1000.000,999.512,999.512,0.000,1711986890.132
682,249.512,-736.816,302.734,237.793,0.000,1711986890.136
683,-1000.000,590.332,-1000.000,-1000.000,0.000,1711986890.140
684,-530.273,669.922,-469.238,-447.754,0.000,1711986890.145
685,999.512,-804.688,999.512,999.512,0.000,1711986890.149
686,709.473,-757.812,592.285,630.859,0.000,1711986890.152
687,-829.590,770.996,-917.480,-939.453,0.000,1711986890.156
688,-1000.000,697.266,-886.230,-990.234,0.000,1711986890.160
689,270.020,-860.352,594.727,494.629,0.000,1711986890.164
690,999.512,-1000.000,984.375,999.512,0.000,1711986890.168
691,-142.090,329.590,-403.809,-229.492,0.000,1711986890.171
692,-1000.000,999.512,-1000.000,-1000.000,0.000,1711986890.175
693,-215.332,-234.863,23.438,-100.586,0.000,1711986890.179
694,999.512,-1000.000,999.512,999.512,0.000,1711986890.183
695,235.840,-100.098,75.684,208.984,0.000,1711986890.187
696,-1000.000,999.512,-1000.000,-1000.000,0.000,1711986890.191
697,-326.172,189.941,-265.625,-266.602,0.000,1711986890.195
698,999.512,-1000.000,999.512,999.512,0.000,1711986890.199
699,385.742,-363.281,360.840,320.801,0.000,1711986890.203
700,-1000.000,845.215,-1000.000,-1000.000,0.000,1711986890.207
701,-655.273,999.512,-593.262,-581.543,0.000,1711986890.211
702,988.770,550.781,876.953,999.512,0.000,1711986890.214
703,745.117,-976.562,845.703,739.746,0.000,1711986890.218
704,-782.715,-744.629,-573.242,-801.758,0.000,1711986890.222
705,-1000.000,706.543,-1000.000,-1000.000,0.000,1711986890.226
706,66.895,-287.598,334.473,225.098,0.000,1711986890.230
707,999.512,-1000.000,999.512,999.512,0.000,1711986890.233
708,144.043,194.824,-73.242,31.250,0.000,1711986890.238
709,-1000.000,999.512,-1000.000,-1000.000,0.000,1711986890.242
710,-257.812,120.117,-145.996,-239.258,0.000,1711986890.246
711,999.512,-1000.000,999.512,999.512,0.000,1711986890.250
712,235.352,-262.207,237.305,232.422,0.000,1711986890.253
713,-1000.000,940.430,-1000.000,-1000.000,0.000,1711986890.257
714,-376.953,999.512,-381.348,-304.688,0.000,1711986890.261
715,999.512,162.109,999.512,999.512,0.000,1711986890.265
716,521.484,-1000.000,632.324,488.281,0.000,1711986890.269
717,-1000.000,-676.758,-828.613,-1000.000,0.000,1711986890.272
718,-855.469,851.074,-818.848,-737.305,0.000,1711986890.276
719,712.402,647.461,642.090,857.910,0.000,1711986890.280
720,999.512,-1000.000,941.895,955.078,0.000,1711986890.285
721,-461.426,-557.129,-445.312,-526.855,0.000,1711986890.289
722,-1000.000,968.750,-1000.000,-1000.000,0.000,1711986890.292
723,13.184,-83.984,232.422,111.816,0.000,1711986890.296
724,999.512,-1000.000,999.512,999.512,0.000,1711986890.300
725,177.246,-288.086,-37.109,68.848,0.000,1711986890.304
726,-1000.000,999.512,-1000.000,-1000.000,0.000,1711986890.308
727,-260.742,568.359,-94.727,-245.117,0.000,1711986890.311
728,999.512,-764.160,999.512,999.512,0.000,1711986890.315
729,237.305,-1000.000,293.945,237.793,0.000,1711986890.319
730,-1000.000,-178.223,-1000.000,-1000.000,0.000,1711986890.323
731,-446.289,999.512,-512.207,-409.180,0.000,1711986890.327
732,999.512,186.035,995.605,999.512,0.000,1711986890.331
733,651.367,-1000.000,621.094,563.965,0.000,1711986890.335
734,-970.703,-395.020,-877.930,-1000.000,0.000,1711986890.339
735,-880.371,999.512,-843.262,-831.055,0.000,1711986890.343
736,616.211,559.082,583.008,683.594,0.000,1711986890.347
737,999.512,-775.391,999.512,999.512,0.000,1711986890.350
738,-64.941,358.398,-299.316,-216.797,0.000,1711986890.354
739,-1000.000,999.512,-1000.000,-1000.000,0.000,1711986890.358
740,-70.312,-438.965,207.031,11.719,0.000,1711986890.362
741,999.512,-1000.000,999.512,999.512,0.000,1711986890.366
742,209.961,-119.629,42.969,185.547,0.000,1711986890.370
743,-1000.000,999.512,-1000.000,-1000.000,0.000,1711986890.373
744,-272.949,298.340,-215.332,-265.137,0.000,1711986890.379
745,999.512,-1000.000,999.512,999.512,0.000,1711986890.382
746,413.574,-362.793,336.426,286.133,0.000,1711986890.386
747,-1000.000,999.512,-1000.000,-1000.000,0.000,1711986890.390
748,-529.785,339.355,-474.609,-525.879,0.000,1711986890.394
749,972.168,-1000.000,999.512,999.512,0.000,1711986890.398
750,999.512,-426.270,678.711,739.258,0.000,1711986890.401
751,-411.621,999.512,-831.055,-796.387,0.000,1711986890.405
752,-1000.000,524.414,-903.320,-1000.000,0.000,1711986890.409
753,276.367,-971.191,573.730,307.129,0.000,1711986890.413
754,999.512,-1000.000,999.512,999.512,0.000,1711986890.417
755,62.500,373.047,-335.449,-186.035,0.000,1711986890.420
